q_ti=-0.5255117858452721,-0.023099419158033794,-0.0057748547895084485,-0.2367690463698548
q_si=0.3176170134229734,0.01127343268545274,-0.000152865303426678,-0.4793129475292021
q_fi=-0.3983825459576358,-0.0057748547895084485,0.0,-0.4215643996341226
initial_knee_angle=90.0
initial_ankle_angle=-30.0
Leg Thickness (cm)=22
Initial Knee Angle (deg)=90.0
Initial Ankle Angle (deg)=-30.0
Recorder Name=Taeyeon

0,6,-0.91,-0.04,-0.01,-0.41,0.55,0.01,-0.01,-0.83,-0.68,-0.01,0.00,-0.73,100.58
0,11,-0.91,-0.04,-0.01,-0.41,0.55,0.01,-0.01,-0.83,-0.68,-0.01,0.00,-0.73,100.60
0,16,-0.91,-0.04,-0.01,-0.41,0.55,0.01,-0.01,-0.83,-0.68,-0.01,0.00,-0.73,100.60
0,21,-0.91,-0.04,-0.01,-0.41,0.55,0.01,-0.01,-0.83,-0.68,-0.01,0.00,-0.73,100.60
0,26,-0.91,-0.04,-0.01,-0.41,0.55,0.01,-0.01,-0.83,-0.68,-0.01,0.00,-0.73,100.60
0,31,-0.91,-0.04,-0.01,-0.41,0.55,0.01,-0.01,-0.83,-0.68,-0.01,0.00,-0.73,100.60
0,36,-0.91,-0.04,-0.01,-0.41,0.55,0.01,-0.01,-0.83,-0.68,-0.01,0.00,-0.73,100.59
0,41,-0.91,-0.04,-0.01,-0.41,0.55,0.01,-0.01,-0.83,-0.68,-0.01,0.00,-0.73,100.59
0,45,-0.91,-0.04,-0.01,-0.41,0.55,0.01,-0.01,-0.83,-0.68,-0.01,0.00,-0.73,100.58
0,51,-0.91,-0.04,-0.01,-0.41,0.55,0.01,-0.01,-0.83,-0.68,-0.01,0.00,-0.73,100.58
0,56,-0.91,-0.04,-0.01,-0.41,0.55,0.01,-0.01,-0.83,-0.71,-0.01,0.00,-0.70,100.61
0,61,-0.91,-0.04,-0.01,-0.41,0.55,0.01,-0.01,-0.83,-0.71,-0.01,0.00,-0.70,100.58
0,66,-0.91,-0.04,-0.01,-0.41,0.55,0.01,-0.01,-0.84,-0.71,-0.01,0.00,-0.70,100.59
0,71,-0.91,-0.04,-0.01,-0.41,0.55,0.01,-0.01,-0.84,-0.71,-0.01,0.00,-0.70,100.58
0,76,-0.91,-0.04,-0.01,-0.41,0.55,0.01,-0.01,-0.84,-0.71,-0.01,0.00,-0.70,100.59
0,81,-0.91,-0.04,-0.01,-0.41,0.55,0.01,-0.01,-0.84,-0.71,-0.01,0.00,-0.70,100.61
0,86,-0.91,-0.04,-0.01,-0.41,0.55,0.01,-0.01,-0.84,-0.71,-0.01,0.00,-0.70,100.61
0,91,-0.91,-0.04,-0.01,-0.41,0.55,0.01,-0.01,-0.84,-0.71,-0.01,0.00,-0.70,100.59
0,96,-0.91,-0.04,-0.01,-0.41,0.55,0.01,-0.01,-0.84,-0.71,-0.01,0.00,-0.70,100.59
0,101,-0.91,-0.04,-0.01,-0.41,0.55,0.01,-0.01,-0.84,-0.71,-0.01,0.00,-0.70,100.59
0,106,-0.91,-0.04,-0.01,-0.41,0.55,0.01,-0.01,-0.84,-0.71,-0.01,0.00,-0.70,100.59
0,111,-0.91,-0.04,-0.01,-0.41,0.55,0.01,-0.01,-0.84,-0.71,-0.01,0.00,-0.70,100.59
0,116,-0.91,-0.04,-0.01,-0.41,0.55,0.01,-0.01,-0.84,-0.71,-0.01,0.00,-0.70,100.59
0,121,-0.91,-0.04,-0.01,-0.41,0.55,0.01,-0.01,-0.84,-0.71,-0.01,0.00,-0.70,100.59
0,126,-0.91,-0.04,-0.01,-0.41,0.55,0.01,-0.01,-0.84,-0.71,-0.01,0.00,-0.70,100.61
0,136,-0.91,-0.04,-0.01,-0.41,0.55,0.01,-0.01,-0.84,-0.71,-0.01,0.00,-0.70,100.59
0,141,-0.91,-0.04,-0.01,-0.41,0.55,0.01,-0.01,-0.84,-0.71,-0.01,0.00,-0.70,100.59
0,146,-0.91,-0.04,-0.01,-0.41,0.55,0.01,-0.01,-0.84,-0.71,-0.01,0.00,-0.70,100.59
0,151,-0.91,-0.04,-0.01,-0.41,0.55,0.01,-0.01,-0.84,-0.71,-0.01,0.00,-0.70,100.57
0,156,-0.91,-0.04,-0.01,-0.41,0.55,0.01,-0.01,-0.84,-0.71,-0.01,0.00,-0.70,100.61
0,161,-0.91,-0.04,-0.01,-0.41,0.55,0.01,-0.01,-0.84,-0.71,-0.01,0.00,-0.70,100.57
0,166,-0.91,-0.04,-0.01,-0.41,0.55,0.01,-0.01,-0.84,-0.71,-0.01,0.00,-0.70,100.57
0,171,-0.91,-0.04,-0.01,-0.41,0.55,0.00,-0.01,-0.84,-0.71,-0.01,0.00,-0.70,100.59
0,181,-0.91,-0.04,-0.01,-0.41,0.55,0.00,-0.01,-0.84,-0.71,-0.01,0.00,-0.70,100.58
0,186,-0.91,-0.04,-0.01,-0.41,0.55,0.00,-0.01,-0.84,-0.71,-0.01,0.00,-0.70,100.60
0,191,-0.91,-0.04,-0.01,-0.41,0.54,0.00,-0.01,-0.84,-0.71,-0.01,0.00,-0.70,100.59
0,196,-0.91,-0.04,-0.01,-0.41,0.54,0.00,-0.01,-0.84,-0.71,-0.01,0.00,-0.70,100.56
0,201,-0.91,-0.04,-0.01,-0.41,0.54,0.00,-0.01,-0.84,-0.71,-0.01,0.00,-0.70,100.58
0,206,-0.91,-0.04,-0.01,-0.41,0.54,0.00,-0.01,-0.84,-0.71,-0.01,0.00,-0.70,100.60
0,211,-0.91,-0.04,-0.01,-0.41,0.54,0.00,-0.01,-0.84,-0.71,-0.01,0.00,-0.70,100.57
0,216,-0.91,-0.04,-0.01,-0.41,0.54,0.00,-0.01,-0.84,-0.71,-0.01,0.00,-0.70,100.60
0,221,-0.91,-0.04,-0.01,-0.41,0.54,0.00,-0.01,-0.84,-0.71,-0.01,0.00,-0.70,100.60
0,226,-0.91,-0.04,-0.01,-0.41,0.54,0.00,-0.01,-0.84,-0.71,-0.01,0.00,-0.70,100.60
0,231,-0.91,-0.04,-0.01,-0.41,0.54,0.00,-0.01,-0.84,-0.71,-0.01,0.00,-0.70,100.58
0,236,-0.91,-0.04,-0.01,-0.41,0.54,0.00,-0.01,-0.84,-0.71,-0.01,0.00,-0.70,100.58
0,246,-0.91,-0.04,-0.01,-0.41,0.54,0.00,-0.01,-0.84,-0.71,-0.01,0.00,-0.70,100.58
0,251,-0.91,-0.04,-0.01,-0.41,0.54,0.00,-0.01,-0.84,-0.71,-0.01,0.00,-0.70,100.58
0,256,-0.91,-0.04,-0.01,-0.41,0.54,0.00,-0.01,-0.84,-0.71,-0.01,0.00,-0.70,100.58
0,261,-0.91,-0.04,-0.01,-0.41,0.54,0.00,-0.01,-0.84,-0.71,-0.01,0.00,-0.70,100.58
0,266,-0.91,-0.04,-0.01,-0.41,0.54,0.00,-0.01,-0.84,-0.71,-0.01,0.00,-0.70,100.58
0,271,-0.91,-0.04,-0.01,-0.41,0.54,0.00,-0.01,-0.84,-0.71,-0.01,0.00,-0.70,100.58
0,276,-0.91,-0.04,-0.01,-0.41,0.54,0.00,-0.01,-0.84,-0.71,-0.01,0.00,-0.70,100.58
0,281,-0.91,-0.04,-0.01,-0.41,0.54,0.00,-0.01,-0.84,-0.71,-0.01,0.00,-0.70,100.58
0,291,-0.91,-0.04,-0.01,-0.41,0.54,0.00,-0.01,-0.84,-0.71,-0.01,0.00,-0.70,100.58
0,296,-0.91,-0.04,-0.01,-0.41,0.54,0.00,-0.01,-0.84,-0.71,-0.01,0.00,-0.70,100.59
0,301,-0.91,-0.04,-0.01,-0.41,0.54,0.00,-0.01,-0.84,-0.71,-0.01,0.00,-0.70,100.57
0,306,-0.91,-0.04,-0.01,-0.41,0.54,0.00,-0.01,-0.84,-0.71,-0.01,0.00,-0.70,100.59
0,311,-0.91,-0.04,-0.01,-0.41,0.54,0.00,-0.01,-0.84,-0.71,-0.01,0.00,-0.70,100.57
0,316,-0.91,-0.04,-0.01,-0.41,0.54,0.00,-0.01,-0.84,-0.71,-0.01,0.00,-0.70,100.58
0,321,-0.91,-0.04,-0.01,-0.41,0.54,0.00,-0.01,-0.84,-0.71,-0.01,0.00,-0.70,100.58
0,326,-0.91,-0.04,-0.01,-0.41,0.54,0.00,-0.01,-0.84,-0.71,-0.01,0.00,-0.70,100.58
0,336,-0.91,-0.04,-0.01,-0.41,0.54,0.00,-0.01,-0.84,-0.71,-0.01,0.00,-0.70,100.59
0,341,-0.91,-0.04,-0.01,-0.41,0.54,0.00,-0.01,-0.84,-0.71,-0.01,0.00,-0.70,100.61
0,346,-0.91,-0.04,-0.01,-0.41,0.54,0.00,-0.01,-0.84,-0.71,-0.01,0.00,-0.70,100.59
0,351,-0.91,-0.04,-0.01,-0.41,0.54,0.00,-0.01,-0.84,-0.71,-0.01,0.00,-0.70,100.59
0,356,-0.91,-0.04,-0.01,-0.41,0.54,0.00,-0.01,-0.84,-0.71,-0.01,0.00,-0.70,100.59
0,361,-0.91,-0.04,-0.01,-0.41,0.54,0.00,-0.01,-0.84,-0.71,-0.01,0.00,-0.70,100.59
0,366,-0.91,-0.04,-0.01,-0.41,0.54,0.00,-0.01,-0.84,-0.71,-0.01,0.00,-0.70,100.61
0,371,-0.91,-0.04,-0.01,-0.41,0.54,0.00,-0.01,-0.84,-0.71,-0.01,0.00,-0.70,100.58
0,381,-0.91,-0.04,-0.01,-0.41,0.54,0.00,-0.01,-0.84,-0.71,-0.01,0.00,-0.70,100.59
0,386,-0.91,-0.04,-0.01,-0.41,0.54,0.00,-0.01,-0.84,-0.71,-0.01,0.00,-0.70,100.59
0,391,-0.91,-0.04,-0.01,-0.41,0.54,0.00,-0.01,-0.84,-0.71,-0.01,0.00,-0.70,100.59
0,396,-0.91,-0.04,-0.01,-0.41,0.54,0.00,-0.01,-0.84,-0.71,-0.01,0.00,-0.70,100.59
0,406,-0.91,-0.04,-0.01,-0.41,0.54,0.00,-0.01,-0.84,-0.71,-0.01,0.00,-0.70,100.57
0,411,-0.91,-0.04,-0.01,-0.41,0.54,0.00,-0.01,-0.84,-0.71,-0.01,0.00,-0.70,100.59
0,416,-0.91,-0.04,-0.01,-0.41,0.54,0.00,-0.01,-0.84,-0.71,-0.01,0.00,-0.70,100.57
0,421,-0.91,-0.04,-0.01,-0.41,0.54,0.00,-0.01,-0.84,-0.71,-0.01,0.00,-0.70,100.59
0,426,-0.91,-0.04,-0.01,-0.41,0.54,0.00,-0.01,-0.84,-0.71,-0.01,0.00,-0.70,100.61
0,431,-0.91,-0.04,-0.01,-0.41,0.54,0.00,-0.01,-0.84,-0.71,-0.01,0.00,-0.70,100.61
0,436,-0.91,-0.04,-0.01,-0.41,0.54,0.00,-0.01,-0.84,-0.71,-0.01,0.00,-0.70,100.59
0,441,-0.91,-0.04,-0.01,-0.41,0.54,0.00,-0.01,-0.84,-0.71,-0.01,0.00,-0.70,100.60
0,451,-0.91,-0.04,-0.01,-0.41,0.54,0.00,-0.01,-0.84,-0.71,-0.01,0.00,-0.70,100.59
0,456,-0.91,-0.04,-0.01,-0.41,0.54,0.00,-0.01,-0.84,-0.71,-0.01,0.00,-0.70,100.60
0,461,-0.91,-0.04,-0.01,-0.41,0.54,0.00,-0.01,-0.84,-0.71,-0.01,0.00,-0.70,100.60
0,466,-0.91,-0.04,-0.01,-0.41,0.54,0.00,-0.01,-0.84,-0.71,-0.01,0.00,-0.70,100.60
0,476,-0.91,-0.04,-0.01,-0.41,0.54,0.00,-0.01,-0.84,-0.71,-0.01,0.00,-0.70,100.58
0,481,-0.91,-0.04,-0.01,-0.41,0.54,0.00,-0.01,-0.84,-0.71,-0.01,0.00,-0.70,100.56
0,486,-0.91,-0.04,-0.01,-0.41,0.54,0.00,-0.01,-0.84,-0.71,-0.01,0.00,-0.70,100.60
0,491,-0.91,-0.04,-0.01,-0.41,0.54,0.00,-0.01,-0.84,-0.71,-0.01,0.00,-0.70,100.59
0,496,-0.91,-0.04,-0.01,-0.41,0.54,0.00,-0.01,-0.84,-0.71,-0.01,0.00,-0.70,100.58
0,501,-0.91,-0.04,-0.01,-0.41,0.54,0.00,-0.01,-0.84,-0.71,-0.01,0.00,-0.70,100.59
0,506,-0.91,-0.04,-0.01,-0.41,0.54,0.00,-0.01,-0.84,-0.71,-0.01,0.00,-0.70,100.60
0,511,-0.91,-0.04,-0.01,-0.41,0.54,0.00,-0.01,-0.84,-0.71,-0.01,0.00,-0.70,100.58
0,521,-0.91,-0.04,-0.01,-0.41,0.54,0.00,-0.01,-0.84,-0.71,-0.01,0.00,-0.70,100.60
0,526,-0.91,-0.04,-0.01,-0.41,0.54,0.00,-0.01,-0.84,-0.71,-0.01,0.00,-0.70,100.60
0,531,-0.91,-0.04,-0.01,-0.41,0.54,0.00,-0.01,-0.84,-0.71,-0.01,0.00,-0.70,100.56
0,536,-0.91,-0.04,-0.01,-0.41,0.54,0.00,-0.01,-0.84,-0.71,-0.01,0.00,-0.70,100.58
0,546,-0.91,-0.04,-0.01,-0.41,0.54,0.00,-0.01,-0.84,-0.71,-0.01,0.00,-0.70,100.58
0,551,-0.91,-0.04,-0.01,-0.41,0.54,0.00,-0.01,-0.84,-0.71,-0.01,0.00,-0.70,100.60
0,556,-0.91,-0.04,-0.01,-0.41,0.54,0.00,-0.01,-0.84,-0.71,-0.01,0.00,-0.70,100.58
0,561,-0.91,-0.04,-0.01,-0.41,0.54,0.00,-0.01,-0.84,-0.71,-0.01,0.00,-0.70,100.60
0,566,-0.91,-0.04,-0.01,-0.41,0.54,0.00,-0.01,-0.84,-0.71,-0.01,0.00,-0.70,100.62
0,571,-0.91,-0.04,-0.01,-0.41,0.54,0.00,-0.01,-0.84,-0.71,-0.01,0.00,-0.70,100.60
0,576,-0.91,-0.04,-0.01,-0.41,0.54,0.00,-0.01,-0.84,-0.71,-0.01,0.00,-0.70,100.58
0,581,-0.91,-0.04,-0.01,-0.41,0.54,0.00,-0.01,-0.84,-0.71,-0.01,0.00,-0.70,100.60
0,591,-0.91,-0.04,-0.01,-0.41,0.54,0.00,-0.01,-0.84,-0.71,-0.01,0.00,-0.70,100.60
0,596,-0.91,-0.04,-0.01,-0.41,0.54,0.00,-0.01,-0.84,-0.71,-0.01,0.00,-0.70,100.58
0,601,-0.91,-0.04,-0.01,-0.41,0.54,0.00,-0.01,-0.84,-0.71,-0.01,0.00,-0.70,100.58
0,606,-0.91,-0.04,-0.01,-0.41,0.54,0.00,-0.01,-0.84,-0.71,-0.01,0.00,-0.70,100.60
0,611,-0.91,-0.04,-0.01,-0.41,0.54,0.00,-0.01,-0.84,-0.71,-0.01,0.00,-0.70,100.60
0,616,-0.91,-0.04,-0.01,-0.41,0.54,0.00,-0.01,-0.84,-0.71,-0.01,0.00,-0.70,100.58
0,621,-0.91,-0.04,-0.01,-0.41,0.54,0.00,-0.01,-0.84,-0.71,-0.01,0.00,-0.70,100.60
0,626,-0.91,-0.04,-0.01,-0.41,0.54,0.00,-0.01,-0.84,-0.71,-0.01,0.00,-0.70,100.60
0,636,-0.91,-0.04,-0.01,-0.41,0.54,0.00,-0.01,-0.84,-0.71,-0.01,0.00,-0.70,100.58
0,641,-0.91,-0.04,-0.01,-0.41,0.54,0.00,-0.01,-0.84,-0.71,-0.01,0.00,-0.70,100.58
0,646,-0.91,-0.04,-0.01,-0.41,0.54,0.00,-0.01,-0.84,-0.71,-0.01,0.00,-0.70,100.58
0,651,-0.91,-0.04,-0.01,-0.41,0.54,0.00,-0.01,-0.84,-0.71,-0.01,0.00,-0.70,100.58
0,656,-0.91,-0.04,-0.01,-0.41,0.54,0.00,-0.01,-0.84,-0.71,-0.01,0.00,-0.70,100.58
0,661,-0.91,-0.04,-0.01,-0.41,0.54,0.00,-0.01,-0.84,-0.71,-0.01,0.00,-0.70,100.58
0,666,-0.91,-0.04,-0.01,-0.41,0.54,0.00,-0.01,-0.84,-0.71,-0.01,0.00,-0.70,100.57
0,671,-0.91,-0.04,-0.01,-0.41,0.54,0.00,-0.01,-0.84,-0.71,-0.01,0.00,-0.70,100.60
0,681,-0.91,-0.04,-0.01,-0.41,0.54,0.00,-0.01,-0.84,-0.71,-0.01,0.00,-0.70,100.58
0,686,-0.91,-0.04,-0.01,-0.41,0.54,0.00,-0.01,-0.84,-0.71,-0.01,0.00,-0.70,100.58
0,691,-0.91,-0.04,-0.01,-0.41,0.54,0.00,-0.01,-0.84,-0.71,-0.01,0.00,-0.70,100.58
0,696,-0.91,-0.04,-0.01,-0.41,0.54,0.00,-0.01,-0.84,-0.71,-0.01,0.00,-0.70,100.58
0,701,-0.91,-0.04,-0.01,-0.41,0.54,0.00,-0.01,-0.84,-0.71,-0.01,0.00,-0.70,100.58
0,706,-0.91,-0.04,-0.01,-0.41,0.54,0.00,-0.01,-0.84,-0.71,-0.01,0.00,-0.70,100.56
0,711,-0.91,-0.04,-0.01,-0.41,0.54,0.00,-0.01,-0.84,-0.71,-0.01,0.00,-0.70,100.58
0,716,-0.91,-0.04,-0.01,-0.41,0.54,0.00,-0.01,-0.84,-0.71,-0.01,0.00,-0.70,100.60
0,726,-0.91,-0.04,-0.01,-0.41,0.54,0.00,-0.01,-0.84,-0.71,-0.01,0.00,-0.70,100.58
0,731,-0.91,-0.04,-0.01,-0.41,0.54,0.00,-0.01,-0.84,-0.71,-0.01,0.00,-0.70,100.58
0,736,-0.91,-0.04,-0.01,-0.41,0.54,0.00,-0.01,-0.84,-0.71,-0.01,0.00,-0.70,100.60
0,741,-0.91,-0.04,-0.01,-0.41,0.54,0.00,-0.01,-0.84,-0.71,-0.01,0.00,-0.70,100.58
0,751,-0.91,-0.04,-0.01,-0.41,0.54,0.00,-0.01,-0.84,-0.71,-0.01,0.00,-0.70,100.60
0,756,-0.91,-0.04,-0.01,-0.41,0.54,0.00,-0.01,-0.84,-0.71,-0.01,0.00,-0.70,100.61
0,761,-0.91,-0.04,-0.01,-0.41,0.54,0.00,-0.01,-0.84,-0.71,-0.01,0.00,-0.70,100.60
0,766,-0.91,-0.04,-0.01,-0.41,0.54,0.00,-0.01,-0.84,-0.71,-0.01,0.00,-0.70,100.61
0,771,-0.91,-0.04,-0.01,-0.41,0.54,0.00,-0.01,-0.84,-0.71,-0.01,0.00,-0.70,100.57
0,776,-0.91,-0.04,-0.01,-0.41,0.54,0.00,-0.01,-0.84,-0.71,-0.01,0.00,-0.70,100.58
0,781,-0.91,-0.04,-0.01,-0.41,0.54,0.00,-0.01,-0.84,-0.71,-0.01,0.00,-0.70,100.59
0,786,-0.91,-0.04,-0.01,-0.41,0.54,0.00,-0.01,-0.84,-0.71,-0.01,0.00,-0.70,100.59
0,796,-0.91,-0.04,-0.01,-0.41,0.54,0.00,-0.01,-0.84,-0.71,-0.01,0.00,-0.70,100.60
0,801,-0.91,-0.04,-0.01,-0.41,0.54,0.00,-0.01,-0.84,-0.71,-0.01,0.00,-0.70,100.59
0,806,-0.91,-0.04,-0.01,-0.41,0.54,0.00,-0.01,-0.84,-0.71,-0.01,0.00,-0.70,100.60
0,811,-0.91,-0.04,-0.01,-0.41,0.54,0.00,-0.01,-0.84,-0.71,-0.01,0.00,-0.70,100.59
0,826,-0.91,-0.04,-0.01,-0.41,0.54,0.00,-0.01,-0.84,-0.71,-0.01,0.00,-0.70,100.59
0,831,-0.91,-0.04,-0.01,-0.41,0.54,0.00,-0.01,-0.84,-0.71,-0.01,0.00,-0.70,100.59
0,836,-0.91,-0.04,-0.01,-0.41,0.54,0.00,-0.01,-0.84,-0.71,-0.01,0.00,-0.70,100.59
0,841,-0.91,-0.04,-0.01,-0.41,0.54,0.00,-0.01,-0.84,-0.71,-0.01,0.00,-0.70,100.56
0,851,-0.91,-0.04,-0.01,-0.41,0.54,0.00,-0.01,-0.84,-0.71,-0.01,0.00,-0.70,100.58
0,856,-0.91,-0.04,-0.01,-0.41,0.54,0.00,-0.01,-0.84,-0.71,-0.01,0.00,-0.70,100.59
0,861,-0.91,-0.04,-0.01,-0.41,0.54,0.00,-0.01,-0.84,-0.71,-0.01,0.00,-0.71,100.59
0,866,-0.91,-0.04,-0.01,-0.41,0.54,0.00,-0.01,-0.84,-0.71,-0.01,0.00,-0.71,100.57
0,886,-0.91,-0.04,-0.01,-0.41,0.54,0.00,-0.01,-0.84,-0.71,-0.01,0.00,-0.70,100.59
0,891,-0.91,-0.04,-0.01,-0.41,0.54,0.00,-0.01,-0.84,-0.71,-0.01,0.00,-0.70,100.59
0,896,-0.91,-0.04,-0.01,-0.41,0.54,0.00,-0.01,-0.84,-0.71,-0.01,0.00,-0.70,100.59
0,901,-0.91,-0.04,-0.01,-0.41,0.54,0.00,-0.01,-0.84,-0.71,-0.01,0.00,-0.70,100.57
0,911,-0.91,-0.04,-0.01,-0.41,0.54,0.00,-0.01,-0.84,-0.72,-0.01,0.00,-0.70,100.59
0,916,-0.91,-0.04,-0.01,-0.41,0.54,0.00,-0.01,-0.84,-0.72,-0.01,0.00,-0.69,100.59
0,921,-0.91,-0.04,-0.01,-0.41,0.54,0.00,-0.01,-0.84,-0.72,-0.01,0.00,-0.69,100.61
0,931,-0.91,-0.04,-0.01,-0.41,0.54,0.00,-0.01,-0.84,-0.72,-0.01,0.01,-0.69,100.57
0,941,-0.91,-0.04,-0.01,-0.41,0.54,0.00,-0.01,-0.84,-0.73,-0.02,0.01,-0.69,100.59
0,946,-0.91,-0.04,-0.01,-0.41,0.54,0.00,-0.01,-0.84,-0.73,-0.02,0.01,-0.68,100.59
0,951,-0.91,-0.04,-0.01,-0.41,0.54,0.00,-0.01,-0.84,-0.73,-0.02,0.02,-0.68,100.59
0,961,-0.91,-0.04,-0.01,-0.41,0.54,0.00,-0.01,-0.84,-0.73,-0.03,0.02,-0.68,100.59
0,966,-0.91,-0.04,-0.01,-0.41,0.54,0.00,-0.01,-0.84,-0.73,-0.03,0.02,-0.68,100.57
0,971,-0.91,-0.04,-0.01,-0.41,0.54,0.00,-0.01,-0.84,-0.73,-0.04,0.03,-0.68,100.61
0,976,-0.91,-0.04,-0.01,-0.41,0.54,0.00,-0.01,-0.84,-0.73,-0.04,0.03,-0.68,100.59
0,981,-0.91,-0.04,-0.01,-0.41,0.54,0.00,-0.01,-0.84,-0.74,-0.04,0.03,-0.68,100.57
0,1001,-0.91,-0.04,-0.01,-0.41,0.54,0.00,-0.01,-0.84,-0.74,-0.06,0.04,-0.67,100.59
0,1006,-0.91,-0.04,-0.01,-0.41,0.54,0.00,-0.01,-0.84,-0.74,-0.06,0.04,-0.67,100.57
0,1011,-0.91,-0.04,-0.01,-0.41,0.54,0.00,-0.01,-0.84,-0.74,-0.06,0.05,-0.67,100.59
0,1016,-0.91,-0.04,-0.01,-0.41,0.54,0.00,-0.01,-0.84,-0.74,-0.06,0.05,-0.67,100.61
0,1031,-0.91,-0.04,-0.01,-0.41,0.54,0.00,-0.01,-0.84,-0.75,-0.07,0.06,-0.66,100.57
0,1036,-0.91,-0.04,-0.01,-0.41,0.54,0.00,-0.01,-0.84,-0.75,-0.07,0.07,-0.66,100.59
0,1041,-0.91,-0.04,-0.01,-0.41,0.54,0.00,-0.01,-0.84,-0.75,-0.07,0.07,-0.66,100.59
0,1046,-0.91,-0.04,-0.01,-0.41,0.54,0.00,-0.01,-0.84,-0.75,-0.07,0.08,-0.65,100.57
0,1051,-0.91,-0.04,-0.01,-0.41,0.54,0.00,-0.01,-0.84,-0.75,-0.07,0.08,-0.65,100.59
0,1056,-0.91,-0.04,-0.01,-0.41,0.54,0.00,-0.01,-0.84,-0.75,-0.08,0.09,-0.65,100.57
0,1061,-0.91,-0.04,-0.01,-0.41,0.54,0.00,-0.01,-0.84,-0.75,-0.08,0.09,-0.65,100.60
0,1071,-0.91,-0.04,-0.01,-0.41,0.54,0.00,-0.01,-0.84,-0.75,-0.08,0.10,-0.64,100.57
0,1086,-0.91,-0.04,-0.01,-0.41,0.54,0.00,-0.01,-0.84,-0.76,-0.09,0.10,-0.64,100.59
0,1091,-0.91,-0.04,-0.01,-0.41,0.54,0.00,-0.01,-0.84,-0.76,-0.10,0.10,-0.64,100.60
0,1096,-0.91,-0.04,-0.01,-0.41,0.54,0.00,-0.01,-0.84,-0.76,-0.10,0.10,-0.63,100.57
0,1101,-0.91,-0.04,-0.01,-0.41,0.54,0.00,-0.01,-0.84,-0.76,-0.11,0.10,-0.63,100.59
0,1106,-0.91,-0.04,-0.01,-0.41,0.54,0.00,-0.01,-0.84,-0.76,-0.11,0.10,-0.63,100.55
0,1111,-0.91,-0.04,-0.01,-0.41,0.54,0.00,-0.01,-0.84,-0.76,-0.11,0.10,-0.63,100.59
0,1116,-0.91,-0.04,-0.01,-0.41,0.54,0.00,-0.01,-0.84,-0.77,-0.12,0.10,-0.62,100.57
0,1121,-0.91,-0.04,-0.01,-0.41,0.54,0.00,-0.01,-0.84,-0.77,-0.12,0.10,-0.62,100.60
0,1141,-0.91,-0.04,-0.01,-0.41,0.54,0.00,-0.01,-0.84,-0.77,-0.14,0.10,-0.61,100.57
0,1146,-0.91,-0.04,-0.01,-0.41,0.54,0.00,-0.01,-0.84,-0.77,-0.14,0.09,-0.61,100.61
0,1151,-0.91,-0.04,-0.01,-0.41,0.54,0.00,-0.01,-0.84,-0.78,-0.14,0.09,-0.61,100.61
0,1156,-0.91,-0.04,-0.01,-0.41,0.54,0.00,-0.01,-0.84,-0.78,-0.15,0.09,-0.60,100.57
0,1166,-0.91,-0.04,-0.01,-0.41,0.54,0.00,-0.01,-0.84,-0.78,-0.16,0.09,-0.60,100.57
0,1171,-0.91,-0.04,-0.01,-0.41,0.54,0.00,-0.01,-0.84,-0.78,-0.16,0.09,-0.59,100.57
0,1176,-0.91,-0.04,-0.01,-0.41,0.54,0.00,-0.01,-0.84,-0.78,-0.16,0.09,-0.59,100.57
0,1181,-0.91,-0.04,-0.01,-0.41,0.54,0.00,-0.01,-0.84,-0.79,-0.17,0.09,-0.59,100.59
0,1191,-0.91,-0.04,-0.01,-0.41,0.54,0.00,-0.01,-0.84,-0.79,-0.17,0.08,-0.59,100.60
0,1196,-0.91,-0.04,-0.01,-0.41,0.54,0.00,-0.01,-0.84,-0.79,-0.17,0.08,-0.58,100.60
0,1201,-0.91,-0.04,-0.01,-0.41,0.54,0.00,-0.01,-0.84,-0.79,-0.17,0.08,-0.58,100.57
0,1206,-0.91,-0.04,-0.01,-0.41,0.54,0.00,-0.01,-0.84,-0.79,-0.17,0.07,-0.58,100.60
0,1211,-0.91,-0.04,-0.01,-0.41,0.54,0.00,-0.01,-0.84,-0.79,-0.17,0.07,-0.58,100.57
0,1231,-0.91,-0.04,-0.01,-0.41,0.54,0.00,-0.01,-0.84,-0.79,-0.16,0.06,-0.58,100.57
0,1236,-0.91,-0.04,-0.01,-0.41,0.54,0.00,-0.01,-0.84,-0.79,-0.16,0.06,-0.58,100.57
0,1241,-0.91,-0.04,-0.01,-0.41,0.54,0.00,-0.01,-0.84,-0.79,-0.17,0.06,-0.59,100.57
0,1251,-0.91,-0.04,-0.01,-0.41,0.54,0.00,-0.01,-0.84,-0.79,-0.17,0.05,-0.59,100.57
0,1256,-0.91,-0.04,-0.01,-0.41,0.54,0.00,-0.01,-0.84,-0.79,-0.17,0.05,-0.59,100.59
0,1261,-0.91,-0.04,-0.01,-0.41,0.54,0.00,-0.01,-0.84,-0.79,-0.17,0.05,-0.59,100.60
0,1266,-0.91,-0.04,-0.01,-0.41,0.54,0.00,-0.01,-0.84,-0.79,-0.17,0.05,-0.59,100.60
0,1276,-0.91,-0.04,-0.01,-0.41,0.54,0.00,-0.01,-0.84,-0.79,-0.17,0.05,-0.59,100.57
0,1286,-0.91,-0.04,-0.01,-0.41,0.54,0.00,-0.01,-0.84,-0.79,-0.17,0.04,-0.59,100.57
0,1291,-0.91,-0.04,-0.01,-0.41,0.54,0.00,-0.01,-0.84,-0.79,-0.17,0.04,-0.59,100.57
0,1296,-0.91,-0.04,-0.01,-0.41,0.54,0.00,-0.01,-0.84,-0.79,-0.17,0.04,-0.59,100.57
0,1306,-0.91,-0.04,-0.01,-0.41,0.54,0.00,-0.01,-0.84,-0.79,-0.17,0.03,-0.59,100.60
0,1311,-0.91,-0.04,-0.01,-0.41,0.54,0.00,-0.01,-0.84,-0.79,-0.17,0.03,-0.59,100.60
0,1316,-0.91,-0.04,-0.01,-0.41,0.54,0.00,-0.01,-0.84,-0.79,-0.17,0.03,-0.59,100.57
0,1321,-0.91,-0.04,-0.01,-0.41,0.54,0.00,-0.01,-0.84,-0.79,-0.17,0.03,-0.59,100.57
0,1341,-0.91,-0.04,-0.01,-0.41,0.54,0.00,-0.01,-0.84,-0.78,-0.17,0.02,-0.60,100.57
0,1346,-0.91,-0.04,-0.01,-0.41,0.54,0.00,-0.01,-0.84,-0.78,-0.17,0.02,-0.60,100.57
0,1351,-0.91,-0.04,-0.01,-0.41,0.54,0.00,-0.01,-0.84,-0.78,-0.17,0.02,-0.60,100.60
0,1356,-0.91,-0.04,-0.01,-0.41,0.54,0.00,-0.01,-0.84,-0.78,-0.17,0.02,-0.60,100.57
0,1366,-0.91,-0.04,-0.01,-0.41,0.54,0.00,-0.01,-0.84,-0.78,-0.18,0.02,-0.60,100.57
0,1371,-0.91,-0.04,-0.01,-0.41,0.54,0.00,-0.01,-0.84,-0.78,-0.18,0.01,-0.60,100.57
0,1376,-0.91,-0.04,-0.01,-0.41,0.54,0.00,-0.01,-0.84,-0.78,-0.18,0.01,-0.60,100.63
0,1381,-0.91,-0.04,-0.01,-0.41,0.54,0.00,-0.01,-0.84,-0.77,-0.18,0.01,-0.60,100.57
0,1401,-0.91,-0.04,-0.01,-0.41,0.54,0.00,-0.01,-0.84,-0.77,-0.19,0.00,-0.61,100.58
0,1406,-0.91,-0.04,-0.01,-0.41,0.54,0.00,-0.01,-0.84,-0.77,-0.19,0.00,-0.61,100.60
0,1411,-0.91,-0.04,-0.01,-0.41,0.54,0.00,-0.01,-0.84,-0.77,-0.19,-0.00,-0.61,100.58
0,1416,-0.91,-0.04,-0.01,-0.41,0.54,0.00,-0.01,-0.84,-0.77,-0.19,-0.00,-0.61,100.60
0,1431,-0.91,-0.04,-0.01,-0.41,0.54,0.00,-0.01,-0.84,-0.77,-0.19,-0.01,-0.61,100.57
0,1436,-0.91,-0.04,-0.01,-0.41,0.54,0.00,-0.01,-0.84,-0.77,-0.19,-0.01,-0.61,100.57
0,1441,-0.91,-0.04,-0.01,-0.41,0.54,0.00,-0.01,-0.84,-0.77,-0.19,-0.01,-0.61,100.58
0,1456,-0.91,-0.04,-0.01,-0.41,0.54,0.00,-0.01,-0.84,-0.77,-0.19,-0.02,-0.61,100.60
0,1461,-0.91,-0.04,-0.01,-0.41,0.54,0.00,-0.01,-0.84,-0.77,-0.19,-0.02,-0.61,100.60
0,1466,-0.91,-0.04,-0.01,-0.41,0.54,0.00,-0.01,-0.84,-0.77,-0.19,-0.02,-0.61,100.60
0,1471,-0.91,-0.04,-0.01,-0.41,0.54,0.00,-0.01,-0.84,-0.77,-0.19,-0.03,-0.61,100.57
0,1476,-0.91,-0.04,-0.01,-0.41,0.54,0.00,-0.01,-0.84,-0.77,-0.19,-0.03,-0.61,100.60
0,1491,-0.91,-0.04,-0.01,-0.41,0.54,0.00,-0.01,-0.84,-0.77,-0.19,-0.03,-0.61,100.58
0,1496,-0.91,-0.04,-0.01,-0.41,0.54,0.00,-0.01,-0.84,-0.77,-0.19,-0.03,-0.61,100.60
0,1501,-0.91,-0.04,-0.01,-0.41,0.54,0.00,-0.01,-0.84,-0.77,-0.19,-0.03,-0.61,100.62
0,1511,-0.91,-0.04,-0.01,-0.41,0.54,0.00,-0.01,-0.84,-0.77,-0.19,-0.03,-0.61,100.57
0,1516,-0.91,-0.04,-0.01,-0.41,0.54,0.00,-0.01,-0.84,-0.77,-0.19,-0.03,-0.61,100.60
0,1521,-0.91,-0.04,-0.01,-0.41,0.54,0.00,-0.01,-0.84,-0.77,-0.19,-0.03,-0.61,100.57
0,1526,-0.91,-0.04,-0.01,-0.41,0.54,0.00,-0.01,-0.84,-0.77,-0.19,-0.03,-0.61,100.57
0,1531,-0.91,-0.04,-0.01,-0.41,0.54,0.00,-0.01,-0.84,-0.77,-0.19,-0.03,-0.61,100.58
0,1536,-0.91,-0.04,-0.01,-0.41,0.54,0.00,-0.01,-0.84,-0.77,-0.19,-0.03,-0.61,100.57
0,1546,-0.91,-0.04,-0.01,-0.41,0.54,0.00,-0.01,-0.84,-0.77,-0.19,-0.03,-0.61,100.60
0,1551,-0.91,-0.04,-0.01,-0.41,0.54,0.00,-0.01,-0.84,-0.77,-0.19,-0.03,-0.61,100.58
0,1556,-0.91,-0.04,-0.01,-0.41,0.54,0.00,-0.01,-0.84,-0.77,-0.19,-0.03,-0.61,100.57
0,1561,-0.91,-0.04,-0.01,-0.41,0.54,0.00,-0.01,-0.84,-0.77,-0.19,-0.03,-0.61,100.60
0,1571,-0.91,-0.04,-0.01,-0.41,0.54,0.00,-0.01,-0.84,-0.77,-0.19,-0.04,-0.61,100.58
0,1576,-0.91,-0.04,-0.01,-0.41,0.54,0.00,-0.01,-0.84,-0.77,-0.19,-0.04,-0.61,100.57
0,1581,-0.91,-0.04,-0.01,-0.41,0.54,0.00,-0.01,-0.84,-0.77,-0.19,-0.04,-0.61,100.58
0,1586,-0.91,-0.04,-0.01,-0.41,0.54,0.00,-0.01,-0.84,-0.77,-0.19,-0.04,-0.61,100.60
0,1591,-0.91,-0.04,-0.01,-0.41,0.54,0.00,-0.01,-0.84,-0.77,-0.19,-0.04,-0.61,100.56
0,1596,-0.91,-0.04,-0.01,-0.41,0.54,0.00,-0.01,-0.84,-0.77,-0.19,-0.04,-0.61,100.62
0,1601,-0.91,-0.04,-0.01,-0.41,0.54,0.00,-0.01,-0.84,-0.77,-0.19,-0.04,-0.61,100.58
0,1606,-0.91,-0.04,-0.01,-0.41,0.54,0.00,-0.01,-0.84,-0.77,-0.19,-0.04,-0.61,100.60
0,1611,-0.91,-0.04,-0.01,-0.41,0.54,0.00,-0.01,-0.84,-0.77,-0.19,-0.04,-0.61,100.60
0,1616,-0.91,-0.04,-0.01,-0.41,0.54,0.00,-0.01,-0.84,-0.77,-0.19,-0.04,-0.61,100.58
0,1641,-0.91,-0.04,-0.01,-0.41,0.54,0.00,-0.01,-0.84,-0.77,-0.18,-0.05,-0.61,100.56
0,1646,-0.91,-0.04,-0.01,-0.41,0.54,0.00,-0.01,-0.84,-0.77,-0.18,-0.05,-0.61,100.58
0,1651,-0.91,-0.04,-0.01,-0.41,0.54,0.00,-0.01,-0.84,-0.77,-0.18,-0.05,-0.61,100.60
0,1656,-0.91,-0.04,-0.01,-0.41,0.54,0.00,-0.01,-0.84,-0.77,-0.18,-0.05,-0.61,100.57
0,1661,-0.91,-0.04,-0.01,-0.41,0.54,0.00,-0.01,-0.84,-0.77,-0.18,-0.06,-0.61,100.58
0,1666,-0.91,-0.04,-0.01,-0.41,0.54,0.00,-0.01,-0.84,-0.77,-0.17,-0.06,-0.61,100.58
0,1671,-0.91,-0.04,-0.01,-0.41,0.54,0.00,-0.01,-0.84,-0.77,-0.17,-0.06,-0.61,100.60
0,1676,-0.91,-0.04,-0.01,-0.41,0.54,0.00,-0.01,-0.84,-0.77,-0.17,-0.06,-0.61,100.60
0,1696,-0.91,-0.04,-0.01,-0.41,0.54,0.00,-0.01,-0.84,-0.77,-0.16,-0.08,-0.61,100.62
0,1701,-0.91,-0.04,-0.01,-0.41,0.54,0.00,-0.01,-0.84,-0.77,-0.16,-0.08,-0.61,100.62
0,1706,-0.91,-0.04,-0.01,-0.41,0.54,0.00,-0.01,-0.84,-0.77,-0.16,-0.08,-0.61,100.60
0,1711,-0.91,-0.04,-0.01,-0.41,0.54,0.00,-0.01,-0.84,-0.77,-0.15,-0.09,-0.61,100.60
0,1731,-0.91,-0.04,-0.01,-0.41,0.54,0.00,-0.01,-0.84,-0.77,-0.15,-0.09,-0.61,100.62
0,1736,-0.91,-0.04,-0.01,-0.41,0.54,0.00,-0.01,-0.84,-0.77,-0.15,-0.10,-0.61,100.62
0,1741,-0.91,-0.04,-0.01,-0.41,0.54,0.00,-0.01,-0.84,-0.77,-0.15,-0.10,-0.61,100.62
0,1746,-0.91,-0.04,-0.01,-0.41,0.54,0.00,-0.01,-0.84,-0.77,-0.15,-0.10,-0.61,100.62
0,1751,-0.91,-0.04,-0.01,-0.41,0.54,0.00,-0.01,-0.84,-0.77,-0.15,-0.10,-0.61,100.62
0,1756,-0.91,-0.04,-0.01,-0.41,0.54,0.00,-0.01,-0.84,-0.77,-0.15,-0.10,-0.61,100.64
0,1761,-0.91,-0.04,-0.01,-0.41,0.54,0.00,-0.01,-0.84,-0.77,-0.15,-0.11,-0.61,100.64
0,1781,-0.91,-0.04,-0.01,-0.41,0.54,0.00,-0.01,-0.84,-0.77,-0.14,-0.11,-0.61,100.62
0,1786,-0.91,-0.04,-0.01,-0.41,0.54,0.00,-0.01,-0.84,-0.77,-0.14,-0.11,-0.61,100.64
0,1791,-0.91,-0.04,-0.01,-0.41,0.54,0.00,-0.01,-0.84,-0.77,-0.14,-0.11,-0.61,100.61
0,1796,-0.91,-0.04,-0.01,-0.41,0.54,0.00,-0.01,-0.84,-0.77,-0.14,-0.12,-0.61,100.63
0,1811,-0.91,-0.04,-0.01,-0.41,0.54,0.00,-0.01,-0.84,-0.77,-0.14,-0.12,-0.62,100.60
0,1816,-0.91,-0.04,-0.01,-0.41,0.54,0.00,-0.01,-0.84,-0.76,-0.14,-0.12,-0.62,100.60
0,1841,-0.91,-0.04,-0.01,-0.41,0.54,0.00,-0.01,-0.84,-0.76,-0.14,-0.12,-0.62,100.60
0,1846,-0.91,-0.04,-0.01,-0.41,0.54,0.00,-0.01,-0.84,-0.76,-0.14,-0.12,-0.62,100.60
0,1856,-0.91,-0.04,-0.01,-0.41,0.54,0.00,-0.01,-0.84,-0.76,-0.14,-0.12,-0.62,100.58
0,1861,-0.91,-0.04,-0.01,-0.41,0.54,0.00,-0.01,-0.84,-0.76,-0.15,-0.12,-0.62,100.58
0,1866,-0.91,-0.04,-0.01,-0.41,0.54,0.00,-0.01,-0.84,-0.76,-0.15,-0.12,-0.62,100.60
0,1871,-0.91,-0.04,-0.01,-0.41,0.54,0.00,-0.01,-0.84,-0.76,-0.15,-0.12,-0.62,100.58
0,1876,-0.91,-0.04,-0.01,-0.41,0.54,0.00,-0.01,-0.84,-0.76,-0.15,-0.12,-0.62,100.58
0,1886,-0.91,-0.04,-0.01,-0.41,0.54,0.00,-0.01,-0.84,-0.76,-0.15,-0.12,-0.62,100.58
0,1891,-0.91,-0.04,-0.01,-0.41,0.54,0.00,-0.01,-0.84,-0.76,-0.15,-0.12,-0.62,100.60
0,1896,-0.91,-0.04,-0.01,-0.41,0.54,0.00,-0.01,-0.84,-0.76,-0.15,-0.12,-0.62,100.60
0,1911,-0.91,-0.04,-0.01,-0.41,0.54,0.00,-0.01,-0.84,-0.76,-0.15,-0.12,-0.62,100.60
0,1926,-0.91,-0.04,-0.01,-0.41,0.54,0.00,-0.01,-0.84,-0.76,-0.15,-0.12,-0.62,100.63
0,1931,-0.91,-0.04,-0.01,-0.41,0.54,0.00,-0.01,-0.84,-0.76,-0.15,-0.12,-0.62,100.61
0,1941,-0.91,-0.04,-0.01,-0.41,0.54,0.00,-0.01,-0.84,-0.76,-0.15,-0.12,-0.62,100.60
0,1946,-0.91,-0.04,-0.01,-0.41,0.54,0.00,-0.01,-0.84,-0.76,-0.15,-0.12,-0.62,100.58
0,1951,-0.91,-0.04,-0.01,-0.41,0.54,0.00,-0.01,-0.84,-0.76,-0.15,-0.12,-0.62,100.60
0,1956,-0.91,-0.04,-0.01,-0.41,0.54,0.00,-0.01,-0.84,-0.76,-0.15,-0.12,-0.62,100.58
0,1961,-0.91,-0.04,-0.01,-0.41,0.54,0.00,-0.01,-0.84,-0.76,-0.15,-0.12,-0.62,100.60
0,1966,-0.91,-0.04,-0.01,-0.41,0.54,0.00,-0.01,-0.84,-0.76,-0.15,-0.12,-0.62,100.58
0,1971,-0.91,-0.04,-0.01,-0.41,0.54,0.00,-0.01,-0.84,-0.76,-0.15,-0.12,-0.62,100.60
0,1976,-0.91,-0.04,-0.01,-0.41,0.54,0.00,-0.01,-0.84,-0.76,-0.15,-0.13,-0.62,100.57
0,1981,-0.91,-0.04,-0.01,-0.41,0.54,0.00,-0.01,-0.84,-0.76,-0.15,-0.13,-0.62,100.59
0,2001,-0.91,-0.04,-0.01,-0.41,0.54,0.00,-0.01,-0.84,-0.76,-0.15,-0.13,-0.62,100.56
0,2006,-0.91,-0.04,-0.01,-0.41,0.54,0.00,-0.01,-0.84,-0.76,-0.15,-0.13,-0.62,100.56
0,2011,-0.91,-0.04,-0.01,-0.41,0.54,0.00,-0.01,-0.84,-0.76,-0.15,-0.13,-0.62,100.60
0,2016,-0.91,-0.04,-0.01,-0.41,0.54,0.00,-0.01,-0.84,-0.76,-0.15,-0.13,-0.62,100.58
0,2031,-0.91,-0.04,-0.01,-0.41,0.54,0.00,-0.01,-0.84,-0.76,-0.15,-0.13,-0.62,100.60
0,2036,-0.91,-0.04,-0.01,-0.41,0.54,0.00,-0.01,-0.84,-0.76,-0.15,-0.13,-0.62,100.59
0,2041,-0.91,-0.04,-0.01,-0.41,0.54,0.00,-0.01,-0.84,-0.75,-0.15,-0.13,-0.62,100.58
0,2046,-0.91,-0.04,-0.01,-0.41,0.54,0.00,-0.01,-0.84,-0.75,-0.15,-0.13,-0.62,100.62
0,2056,-0.91,-0.04,-0.01,-0.41,0.54,0.00,-0.01,-0.84,-0.75,-0.15,-0.13,-0.62,100.60
0,2061,-0.91,-0.04,-0.01,-0.41,0.54,0.00,-0.01,-0.84,-0.75,-0.15,-0.13,-0.62,100.61
0,2066,-0.91,-0.04,-0.01,-0.41,0.54,0.00,-0.01,-0.84,-0.75,-0.15,-0.13,-0.62,100.58
0,2076,-0.91,-0.04,-0.01,-0.41,0.54,0.00,-0.01,-0.84,-0.75,-0.15,-0.13,-0.62,100.60
0,2086,-0.91,-0.04,-0.01,-0.41,0.54,0.00,-0.01,-0.84,-0.76,-0.16,-0.13,-0.62,100.58
0,2091,-0.91,-0.04,-0.01,-0.41,0.54,0.00,-0.01,-0.84,-0.76,-0.16,-0.13,-0.62,100.58
0,2096,-0.91,-0.04,-0.01,-0.41,0.54,0.00,-0.01,-0.84,-0.76,-0.16,-0.13,-0.62,100.61
0,2101,-0.91,-0.04,-0.01,-0.41,0.54,0.00,-0.01,-0.84,-0.76,-0.16,-0.13,-0.62,100.61
0,2111,-0.91,-0.04,-0.01,-0.41,0.54,0.00,-0.01,-0.84,-0.76,-0.16,-0.13,-0.62,100.60
0,2121,-0.91,-0.04,-0.01,-0.41,0.54,0.00,-0.01,-0.84,-0.76,-0.16,-0.13,-0.62,100.60
0,2126,-0.91,-0.04,-0.01,-0.41,0.54,0.00,-0.01,-0.84,-0.76,-0.16,-0.14,-0.62,100.60
0,2136,-0.91,-0.04,-0.01,-0.41,0.54,0.00,-0.01,-0.84,-0.76,-0.16,-0.14,-0.62,100.58
0,2151,-0.91,-0.04,-0.01,-0.41,0.54,0.00,-0.01,-0.84,-0.76,-0.16,-0.14,-0.62,100.60
0,2156,-0.91,-0.04,-0.01,-0.41,0.54,0.00,-0.01,-0.84,-0.76,-0.17,-0.14,-0.62,100.58
0,2161,-0.91,-0.04,-0.01,-0.41,0.54,0.00,-0.01,-0.84,-0.76,-0.17,-0.14,-0.62,100.61
0,2166,-0.91,-0.04,-0.01,-0.41,0.54,0.00,-0.01,-0.84,-0.76,-0.17,-0.14,-0.62,100.60
0,2171,-0.91,-0.04,-0.01,-0.41,0.54,0.00,-0.01,-0.84,-0.76,-0.17,-0.14,-0.62,100.58
0,2176,-0.91,-0.04,-0.01,-0.41,0.54,0.00,-0.01,-0.84,-0.76,-0.17,-0.14,-0.62,100.58
0,2181,-0.91,-0.04,-0.01,-0.41,0.54,0.00,-0.01,-0.84,-0.76,-0.17,-0.14,-0.62,100.58
0,2201,-0.91,-0.04,-0.01,-0.41,0.54,0.00,-0.01,-0.84,-0.76,-0.17,-0.14,-0.62,100.58
0,2211,-0.91,-0.04,-0.01,-0.41,0.54,0.00,-0.01,-0.84,-0.76,-0.17,-0.14,-0.62,100.59
0,2216,-0.91,-0.04,-0.01,-0.41,0.54,0.00,-0.01,-0.84,-0.76,-0.17,-0.14,-0.62,100.56
0,2221,-0.91,-0.04,-0.01,-0.41,0.54,0.00,-0.01,-0.84,-0.76,-0.17,-0.14,-0.62,100.60
0,2231,-0.91,-0.04,-0.01,-0.41,0.54,0.00,-0.01,-0.84,-0.76,-0.17,-0.14,-0.62,100.58
0,2236,-0.91,-0.04,-0.01,-0.41,0.54,0.00,-0.01,-0.84,-0.76,-0.17,-0.14,-0.62,100.58
0,2241,-0.91,-0.04,-0.01,-0.41,0.54,0.00,-0.01,-0.84,-0.76,-0.17,-0.14,-0.62,100.60
0,2246,-0.91,-0.04,-0.01,-0.41,0.54,0.00,-0.01,-0.84,-0.76,-0.17,-0.14,-0.62,100.57
0,2266,-0.91,-0.04,-0.01,-0.41,0.54,0.00,-0.01,-0.84,-0.76,-0.16,-0.14,-0.62,100.61
0,2271,-0.91,-0.04,-0.01,-0.41,0.54,0.00,-0.01,-0.84,-0.76,-0.16,-0.14,-0.62,100.58
0,2276,-0.91,-0.04,-0.01,-0.41,0.54,0.00,-0.01,-0.84,-0.76,-0.16,-0.14,-0.62,100.59
0,2286,-0.91,-0.04,-0.01,-0.41,0.54,0.00,-0.01,-0.84,-0.76,-0.16,-0.14,-0.62,100.61
0,2296,-0.91,-0.04,-0.01,-0.41,0.54,0.00,-0.01,-0.84,-0.76,-0.16,-0.14,-0.62,100.60
0,2301,-0.91,-0.04,-0.01,-0.41,0.54,0.00,-0.01,-0.84,-0.76,-0.16,-0.14,-0.62,100.58
0,2306,-0.91,-0.04,-0.01,-0.41,0.54,0.00,-0.01,-0.84,-0.76,-0.16,-0.14,-0.62,100.63
0,2311,-0.91,-0.04,-0.01,-0.41,0.54,0.00,-0.01,-0.84,-0.76,-0.16,-0.13,-0.62,100.59
0,2321,-0.91,-0.04,-0.01,-0.41,0.54,0.00,-0.01,-0.84,-0.76,-0.16,-0.13,-0.62,100.59
0,2326,-0.91,-0.04,-0.01,-0.41,0.54,0.00,-0.01,-0.84,-0.76,-0.16,-0.13,-0.62,100.59
0,2331,-0.91,-0.04,-0.01,-0.41,0.54,0.00,-0.01,-0.84,-0.76,-0.16,-0.13,-0.62,100.58
0,2336,-0.91,-0.04,-0.01,-0.41,0.54,0.00,-0.01,-0.84,-0.76,-0.16,-0.13,-0.62,100.60
0,2361,-0.91,-0.04,-0.01,-0.41,0.54,0.00,-0.01,-0.84,-0.76,-0.16,-0.13,-0.62,100.61
0,2366,-0.91,-0.04,-0.01,-0.41,0.54,0.00,-0.01,-0.84,-0.76,-0.16,-0.13,-0.62,100.59
0,2371,-0.91,-0.04,-0.01,-0.41,0.54,0.00,-0.01,-0.84,-0.76,-0.16,-0.13,-0.62,100.59
0,2376,-0.91,-0.04,-0.01,-0.41,0.54,0.00,-0.01,-0.84,-0.76,-0.16,-0.13,-0.62,100.58
0,2381,-0.91,-0.04,-0.01,-0.41,0.54,0.00,-0.01,-0.84,-0.76,-0.16,-0.13,-0.62,100.59
0,2386,-0.91,-0.04,-0.01,-0.41,0.54,0.00,-0.01,-0.84,-0.76,-0.16,-0.13,-0.62,100.60
0,2391,-0.91,-0.04,-0.01,-0.41,0.54,0.00,-0.01,-0.84,-0.76,-0.16,-0.13,-0.62,100.59
0,2401,-0.91,-0.04,-0.01,-0.41,0.54,0.00,-0.01,-0.84,-0.76,-0.15,-0.13,-0.62,100.57
0,2416,-0.91,-0.04,-0.01,-0.41,0.54,0.00,-0.01,-0.84,-0.76,-0.15,-0.13,-0.62,100.58
0,2421,-0.91,-0.04,-0.01,-0.41,0.54,0.00,-0.01,-0.84,-0.76,-0.15,-0.13,-0.62,100.59
0,2426,-0.91,-0.04,-0.01,-0.41,0.54,0.00,-0.01,-0.84,-0.76,-0.15,-0.13,-0.62,100.60
0,2431,-0.91,-0.04,-0.01,-0.41,0.54,0.00,-0.01,-0.84,-0.76,-0.15,-0.13,-0.62,100.59
0,2441,-0.91,-0.04,-0.01,-0.41,0.54,0.00,-0.01,-0.84,-0.76,-0.16,-0.13,-0.62,100.59
0,2446,-0.91,-0.04,-0.01,-0.41,0.54,0.00,-0.01,-0.84,-0.76,-0.16,-0.13,-0.62,100.59
0,2451,-0.91,-0.04,-0.01,-0.41,0.54,0.00,-0.01,-0.84,-0.76,-0.16,-0.13,-0.62,100.61
0,2461,-0.91,-0.04,-0.01,-0.41,0.54,0.00,-0.01,-0.84,-0.75,-0.16,-0.13,-0.62,100.58
0,2476,-0.91,-0.04,-0.01,-0.41,0.54,0.00,-0.01,-0.84,-0.75,-0.16,-0.13,-0.62,100.61
0,2481,-0.91,-0.04,-0.01,-0.41,0.54,0.00,-0.01,-0.84,-0.75,-0.16,-0.13,-0.62,100.61
0,2486,-0.91,-0.04,-0.01,-0.41,0.54,0.00,-0.01,-0.84,-0.75,-0.16,-0.13,-0.62,100.59
0,2496,-0.91,-0.04,-0.01,-0.41,0.54,0.00,-0.01,-0.84,-0.75,-0.16,-0.13,-0.62,100.59
0,2501,-0.91,-0.04,-0.01,-0.41,0.54,0.00,-0.01,-0.84,-0.75,-0.16,-0.14,-0.62,100.57
0,2506,-0.91,-0.04,-0.01,-0.41,0.54,0.00,-0.01,-0.84,-0.75,-0.16,-0.14,-0.62,100.59
0,2511,-0.91,-0.04,-0.01,-0.41,0.54,0.00,-0.01,-0.84,-0.75,-0.17,-0.14,-0.62,100.61
0,2516,-0.91,-0.04,-0.01,-0.41,0.54,0.00,-0.01,-0.84,-0.75,-0.17,-0.14,-0.62,100.58
0,2526,-0.91,-0.04,-0.01,-0.41,0.54,0.00,-0.01,-0.84,-0.75,-0.17,-0.14,-0.62,100.60
0,2531,-0.91,-0.04,-0.01,-0.41,0.54,0.00,-0.01,-0.84,-0.75,-0.17,-0.14,-0.62,100.57
0,2536,-0.91,-0.04,-0.01,-0.41,0.54,0.00,-0.01,-0.84,-0.75,-0.17,-0.14,-0.62,100.60
0,2541,-0.91,-0.04,-0.01,-0.41,0.54,0.00,-0.01,-0.84,-0.75,-0.17,-0.14,-0.62,100.63
0,2561,-0.91,-0.04,-0.01,-0.41,0.54,0.00,-0.01,-0.84,-0.75,-0.17,-0.15,-0.62,100.59
0,2566,-0.91,-0.04,-0.01,-0.41,0.54,0.00,-0.01,-0.84,-0.75,-0.17,-0.15,-0.62,100.59
0,2571,-0.91,-0.04,-0.01,-0.41,0.54,0.00,-0.01,-0.84,-0.75,-0.18,-0.15,-0.62,100.59
0,2581,-0.91,-0.04,-0.01,-0.41,0.54,0.00,-0.01,-0.84,-0.75,-0.18,-0.15,-0.62,100.60
0,2586,-0.91,-0.04,-0.01,-0.41,0.54,0.00,-0.01,-0.84,-0.75,-0.18,-0.15,-0.62,100.59
0,2591,-0.91,-0.04,-0.01,-0.41,0.54,0.00,-0.01,-0.84,-0.75,-0.18,-0.15,-0.62,100.61
0,2596,-0.91,-0.04,-0.01,-0.41,0.54,0.00,-0.01,-0.84,-0.75,-0.18,-0.15,-0.62,100.61
0,2606,-0.91,-0.04,-0.01,-0.41,0.54,0.00,-0.01,-0.84,-0.75,-0.18,-0.15,-0.62,100.59
0,2621,-0.91,-0.04,-0.01,-0.41,0.54,0.00,-0.01,-0.84,-0.75,-0.19,-0.15,-0.61,100.61
0,2626,-0.91,-0.04,-0.01,-0.41,0.54,0.00,-0.01,-0.84,-0.75,-0.19,-0.15,-0.61,100.59
0,2631,-0.91,-0.04,-0.01,-0.41,0.54,0.00,-0.01,-0.84,-0.75,-0.19,-0.15,-0.61,100.59
0,2636,-0.91,-0.04,-0.01,-0.41,0.54,0.00,-0.01,-0.84,-0.75,-0.19,-0.15,-0.61,100.59
0,2641,-0.91,-0.04,-0.01,-0.41,0.54,0.00,-0.01,-0.84,-0.75,-0.19,-0.16,-0.61,100.59
0,2646,-0.91,-0.04,-0.01,-0.41,0.54,0.00,-0.01,-0.84,-0.75,-0.19,-0.16,-0.61,100.61
0,2651,-0.91,-0.04,-0.01,-0.41,0.54,0.00,-0.01,-0.84,-0.75,-0.19,-0.16,-0.61,100.57
0,2656,-0.91,-0.04,-0.01,-0.41,0.54,0.00,-0.01,-0.84,-0.75,-0.19,-0.16,-0.61,100.59
0,2676,-0.91,-0.04,-0.01,-0.41,0.54,0.00,-0.01,-0.84,-0.75,-0.19,-0.16,-0.61,100.57
0,2681,-0.91,-0.04,-0.01,-0.41,0.54,0.00,-0.01,-0.84,-0.75,-0.19,-0.16,-0.61,100.59
0,2686,-0.91,-0.04,-0.01,-0.41,0.54,0.00,-0.01,-0.84,-0.75,-0.19,-0.16,-0.61,100.61
0,2691,-0.91,-0.04,-0.01,-0.41,0.54,0.00,-0.01,-0.84,-0.75,-0.19,-0.16,-0.61,100.59
0,2701,-0.91,-0.04,-0.01,-0.41,0.54,0.00,-0.01,-0.84,-0.75,-0.19,-0.16,-0.61,100.58
0,2706,-0.91,-0.04,-0.01,-0.41,0.54,0.00,-0.01,-0.84,-0.75,-0.19,-0.15,-0.61,100.63
0,2711,-0.91,-0.04,-0.01,-0.41,0.54,0.00,-0.01,-0.84,-0.75,-0.19,-0.15,-0.61,100.61
0,2716,-0.91,-0.04,-0.01,-0.41,0.54,0.00,-0.01,-0.84,-0.75,-0.19,-0.15,-0.61,100.57
0,2736,-0.91,-0.04,-0.01,-0.41,0.54,0.00,-0.01,-0.84,-0.75,-0.18,-0.15,-0.62,100.61
0,2741,-0.91,-0.04,-0.01,-0.41,0.54,0.00,-0.01,-0.84,-0.75,-0.18,-0.15,-0.62,100.61
0,2746,-0.91,-0.04,-0.01,-0.41,0.54,0.00,-0.01,-0.84,-0.75,-0.18,-0.15,-0.62,100.61
0,2751,-0.91,-0.04,-0.01,-0.41,0.54,0.00,-0.01,-0.84,-0.75,-0.18,-0.15,-0.62,100.59
0,2756,-0.91,-0.04,-0.01,-0.41,0.54,0.00,-0.01,-0.84,-0.75,-0.18,-0.15,-0.62,100.63
0,2766,-0.91,-0.04,-0.01,-0.41,0.54,0.00,-0.01,-0.84,-0.75,-0.18,-0.15,-0.62,100.59
0,2771,-0.91,-0.04,-0.01,-0.41,0.54,0.00,-0.01,-0.84,-0.75,-0.18,-0.15,-0.62,100.59
0,2776,-0.91,-0.04,-0.01,-0.41,0.54,0.00,-0.01,-0.84,-0.75,-0.18,-0.15,-0.62,100.59
0,2781,-0.91,-0.04,-0.01,-0.41,0.54,0.00,-0.01,-0.84,-0.75,-0.18,-0.15,-0.62,100.59
0,2786,-0.91,-0.04,-0.01,-0.41,0.54,0.00,-0.01,-0.84,-0.75,-0.18,-0.15,-0.62,100.61
0,2791,-0.91,-0.04,-0.01,-0.41,0.54,0.00,-0.01,-0.84,-0.75,-0.18,-0.15,-0.62,100.61
0,2796,-0.91,-0.04,-0.01,-0.41,0.54,0.00,-0.01,-0.84,-0.75,-0.18,-0.15,-0.62,100.59
0,2811,-0.91,-0.04,-0.01,-0.41,0.54,0.00,-0.01,-0.84,-0.75,-0.18,-0.15,-0.62,100.59
0,2821,-0.91,-0.04,-0.01,-0.41,0.54,0.00,-0.01,-0.84,-0.75,-0.17,-0.14,-0.62,100.61
0,2826,-0.91,-0.04,-0.01,-0.41,0.54,0.00,-0.01,-0.84,-0.75,-0.17,-0.14,-0.62,100.59
0,2831,-0.91,-0.04,-0.01,-0.41,0.54,0.00,-0.01,-0.84,-0.75,-0.17,-0.14,-0.62,100.59
0,2836,-0.91,-0.04,-0.01,-0.41,0.54,0.00,-0.01,-0.84,-0.75,-0.17,-0.14,-0.62,100.59
0,2846,-0.91,-0.04,-0.01,-0.41,0.54,0.00,-0.01,-0.84,-0.75,-0.17,-0.14,-0.62,100.59
0,2851,-0.91,-0.04,-0.01,-0.41,0.54,0.00,-0.01,-0.84,-0.75,-0.17,-0.14,-0.62,100.61
0,2856,-0.91,-0.04,-0.01,-0.41,0.54,0.00,-0.01,-0.84,-0.75,-0.17,-0.14,-0.62,100.59
0,2876,-0.91,-0.04,-0.01,-0.41,0.54,0.00,-0.01,-0.84,-0.75,-0.16,-0.14,-0.62,100.61
0,2881,-0.91,-0.04,-0.01,-0.41,0.54,0.00,-0.01,-0.84,-0.75,-0.16,-0.13,-0.62,100.63
0,2886,-0.91,-0.04,-0.01,-0.41,0.54,0.00,-0.01,-0.84,-0.75,-0.16,-0.13,-0.62,100.67
0,2891,-0.91,-0.04,-0.01,-0.41,0.54,0.00,-0.01,-0.84,-0.75,-0.16,-0.13,-0.62,100.68
0,2896,-0.91,-0.04,-0.01,-0.41,0.54,0.00,-0.01,-0.84,-0.75,-0.16,-0.13,-0.62,100.68
0,2906,-0.91,-0.04,-0.01,-0.41,0.54,0.00,-0.01,-0.84,-0.75,-0.15,-0.13,-0.62,100.73
0,2911,-0.91,-0.04,-0.01,-0.41,0.54,0.00,-0.01,-0.84,-0.75,-0.15,-0.13,-0.62,100.75
0,2916,-0.91,-0.04,-0.01,-0.41,0.54,0.00,-0.01,-0.84,-0.75,-0.15,-0.12,-0.62,100.79
0,2926,-0.91,-0.04,-0.01,-0.41,0.54,0.00,-0.01,-0.84,-0.76,-0.14,-0.12,-0.63,100.85
0,2941,-0.91,-0.04,-0.01,-0.41,0.54,0.00,-0.01,-0.84,-0.76,-0.14,-0.12,-0.63,100.94
0,2946,-0.91,-0.04,-0.01,-0.41,0.54,0.00,-0.01,-0.84,-0.76,-0.14,-0.12,-0.63,101.00
0,2951,-0.91,-0.04,-0.01,-0.41,0.54,0.00,-0.01,-0.84,-0.76,-0.14,-0.11,-0.63,101.12
0,2971,-0.91,-0.04,-0.01,-0.41,0.54,0.00,-0.01,-0.84,-0.76,-0.13,-0.11,-0.63,101.45
0,2976,-0.91,-0.04,-0.01,-0.41,0.54,0.00,-0.01,-0.84,-0.76,-0.13,-0.11,-0.63,101.56
0,2981,-0.91,-0.04,-0.01,-0.41,0.54,0.00,-0.01,-0.84,-0.76,-0.13,-0.11,-0.63,101.65
0,2986,-0.91,-0.04,-0.01,-0.41,0.54,0.00,-0.01,-0.84,-0.76,-0.12,-0.10,-0.63,101.79
0,3001,-0.91,-0.04,-0.01,-0.41,0.54,0.00,-0.01,-0.84,-0.76,-0.12,-0.10,-0.63,102.20
0,3006,-0.91,-0.04,-0.01,-0.41,0.54,0.00,-0.01,-0.84,-0.76,-0.12,-0.10,-0.63,102.35
0,3011,-0.91,-0.04,-0.01,-0.41,0.54,0.00,-0.01,-0.84,-0.76,-0.12,-0.09,-0.63,102.58
0,3021,-0.91,-0.04,-0.01,-0.41,0.54,0.00,-0.01,-0.84,-0.76,-0.11,-0.09,-0.64,103.07
0,3036,-0.91,-0.04,-0.01,-0.41,0.54,0.00,-0.01,-0.84,-0.76,-0.11,-0.09,-0.64,103.85
0,3041,-0.91,-0.04,-0.01,-0.41,0.54,0.00,-0.01,-0.84,-0.76,-0.11,-0.09,-0.64,104.14
0,3046,-0.91,-0.04,-0.01,-0.41,0.54,0.00,-0.01,-0.84,-0.76,-0.10,-0.09,-0.64,104.39
0,3056,-0.91,-0.04,-0.01,-0.41,0.54,0.00,-0.01,-0.84,-0.76,-0.10,-0.08,-0.64,104.87
0,3066,-0.91,-0.04,-0.01,-0.41,0.54,0.00,-0.01,-0.84,-0.76,-0.10,-0.08,-0.64,105.26
0,3071,-0.91,-0.04,-0.01,-0.41,0.54,0.00,-0.01,-0.84,-0.76,-0.10,-0.08,-0.64,105.46
0,3081,-0.91,-0.04,-0.01,-0.41,0.54,0.00,-0.01,-0.84,-0.76,-0.09,-0.08,-0.64,105.82
0,3091,-0.91,-0.04,-0.01,-0.41,0.54,0.00,-0.01,-0.84,-0.76,-0.09,-0.07,-0.64,106.05
0,3096,-0.91,-0.04,-0.01,-0.41,0.54,0.00,-0.01,-0.84,-0.76,-0.09,-0.07,-0.64,106.19
0,3101,-0.91,-0.04,-0.01,-0.41,0.54,0.00,-0.01,-0.84,-0.76,-0.09,-0.07,-0.64,106.33
0,3106,-0.91,-0.04,-0.01,-0.41,0.54,0.00,-0.01,-0.84,-0.76,-0.09,-0.07,-0.64,106.44
0,3116,-0.91,-0.04,-0.01,-0.41,0.54,0.00,-0.01,-0.84,-0.76,-0.09,-0.07,-0.64,106.71
0,3126,-0.91,-0.04,-0.01,-0.41,0.54,0.00,-0.01,-0.84,-0.76,-0.09,-0.07,-0.64,106.91
0,3131,-0.91,-0.04,-0.01,-0.41,0.54,0.00,-0.01,-0.84,-0.76,-0.09,-0.07,-0.64,106.98
0,3136,-0.91,-0.04,-0.01,-0.41,0.54,0.00,-0.01,-0.84,-0.76,-0.09,-0.06,-0.64,107.10
0,3141,-0.91,-0.04,-0.01,-0.41,0.54,0.00,-0.01,-0.84,-0.76,-0.09,-0.06,-0.64,107.19
0,3151,-0.91,-0.04,-0.01,-0.41,0.54,0.00,-0.01,-0.84,-0.76,-0.09,-0.06,-0.64,107.39
0,3156,-0.91,-0.04,-0.01,-0.41,0.54,0.00,-0.01,-0.84,-0.76,-0.09,-0.06,-0.64,107.49
0,3161,-0.91,-0.04,-0.01,-0.41,0.54,0.00,-0.01,-0.84,-0.76,-0.09,-0.06,-0.64,107.61
0,3176,-0.91,-0.04,-0.01,-0.41,0.54,0.00,-0.01,-0.84,-0.76,-0.08,-0.06,-0.64,107.90
0,3186,-0.91,-0.04,-0.01,-0.41,0.54,0.00,-0.01,-0.84,-0.76,-0.08,-0.06,-0.64,108.03
0,3191,-0.91,-0.04,-0.01,-0.41,0.54,0.00,-0.01,-0.84,-0.76,-0.08,-0.05,-0.64,108.08
0,3196,-0.91,-0.04,-0.01,-0.41,0.54,0.00,-0.01,-0.84,-0.76,-0.08,-0.05,-0.64,108.12
0,3201,-0.91,-0.04,-0.01,-0.41,0.54,0.00,-0.01,-0.84,-0.76,-0.08,-0.05,-0.64,108.18
0,3211,-0.91,-0.04,-0.01,-0.41,0.54,0.00,-0.01,-0.84,-0.76,-0.08,-0.05,-0.64,108.26
0,3216,-0.91,-0.04,-0.01,-0.41,0.54,0.00,-0.01,-0.84,-0.76,-0.08,-0.05,-0.64,108.30
0,3226,-0.91,-0.04,-0.01,-0.41,0.54,0.00,-0.01,-0.84,-0.76,-0.08,-0.05,-0.64,108.38
0,3236,-0.91,-0.04,-0.01,-0.41,0.54,0.00,-0.01,-0.84,-0.76,-0.08,-0.05,-0.64,108.44
0,3246,-0.91,-0.04,-0.01,-0.41,0.54,0.00,-0.01,-0.84,-0.76,-0.08,-0.04,-0.64,108.48
0,3251,-0.91,-0.04,-0.01,-0.41,0.54,0.00,-0.01,-0.84,-0.76,-0.08,-0.04,-0.64,108.51
0,3256,-0.91,-0.04,-0.01,-0.41,0.54,0.00,-0.01,-0.84,-0.76,-0.08,-0.04,-0.64,108.54
0,3266,-0.91,-0.04,-0.01,-0.41,0.54,0.00,-0.01,-0.84,-0.76,-0.08,-0.04,-0.64,108.57
0,3276,-0.91,-0.04,-0.01,-0.41,0.54,0.00,-0.01,-0.84,-0.76,-0.08,-0.04,-0.64,108.65
0,3281,-0.91,-0.04,-0.01,-0.41,0.54,0.00,-0.01,-0.84,-0.76,-0.08,-0.04,-0.64,108.68
0,3286,-0.91,-0.04,-0.01,-0.41,0.54,0.00,-0.01,-0.84,-0.76,-0.08,-0.04,-0.64,108.68
0,3291,-0.91,-0.04,-0.01,-0.41,0.54,0.00,-0.01,-0.84,-0.76,-0.08,-0.04,-0.64,108.68
0,3301,-0.91,-0.04,-0.01,-0.41,0.54,0.00,-0.01,-0.84,-0.76,-0.08,-0.04,-0.64,108.67
0,3311,-0.91,-0.04,-0.01,-0.41,0.54,0.00,-0.01,-0.84,-0.76,-0.08,-0.04,-0.64,108.66
0,3321,-0.91,-0.04,-0.01,-0.41,0.54,0.00,-0.01,-0.84,-0.76,-0.08,-0.04,-0.64,108.64
0,3326,-0.91,-0.04,-0.01,-0.41,0.54,0.00,-0.01,-0.84,-0.76,-0.08,-0.04,-0.64,108.62
0,3331,-0.91,-0.04,-0.01,-0.41,0.54,0.00,-0.01,-0.84,-0.76,-0.08,-0.04,-0.64,108.60
0,3336,-0.91,-0.04,-0.01,-0.41,0.54,0.00,-0.01,-0.84,-0.76,-0.08,-0.04,-0.64,108.60
0,3341,-0.91,-0.04,-0.01,-0.41,0.54,0.00,-0.01,-0.84,-0.76,-0.08,-0.04,-0.64,108.61
0,3346,-0.91,-0.04,-0.01,-0.41,0.54,0.00,-0.01,-0.84,-0.76,-0.08,-0.04,-0.64,108.60
0,3356,-0.91,-0.04,-0.01,-0.41,0.54,0.00,-0.01,-0.84,-0.76,-0.08,-0.04,-0.64,108.56
0,3361,-0.91,-0.04,-0.01,-0.41,0.54,0.00,-0.01,-0.84,-0.76,-0.08,-0.04,-0.64,108.54
0,3366,-0.91,-0.04,-0.01,-0.41,0.54,0.00,-0.01,-0.84,-0.76,-0.08,-0.04,-0.64,108.52
0,3381,-0.91,-0.04,-0.01,-0.41,0.54,0.00,-0.01,-0.84,-0.76,-0.08,-0.04,-0.64,108.50
0,3391,-0.91,-0.04,-0.01,-0.41,0.54,0.00,-0.01,-0.84,-0.76,-0.08,-0.04,-0.64,108.45
0,3396,-0.91,-0.04,-0.01,-0.41,0.54,0.00,-0.01,-0.84,-0.76,-0.08,-0.04,-0.64,108.46
0,3406,-0.91,-0.04,-0.01,-0.41,0.54,0.00,-0.01,-0.84,-0.76,-0.08,-0.04,-0.64,108.46
0,3411,-0.91,-0.04,-0.01,-0.41,0.54,0.00,-0.01,-0.84,-0.76,-0.08,-0.04,-0.64,108.46
0,3421,-0.91,-0.04,-0.01,-0.41,0.54,0.00,-0.01,-0.84,-0.76,-0.08,-0.04,-0.64,108.44
0,3426,-0.91,-0.04,-0.01,-0.41,0.54,0.00,-0.01,-0.84,-0.76,-0.08,-0.04,-0.64,108.42
0,3431,-0.91,-0.04,-0.01,-0.41,0.54,0.00,-0.01,-0.84,-0.76,-0.08,-0.04,-0.64,108.44
0,3446,-0.91,-0.04,-0.01,-0.41,0.54,0.00,-0.01,-0.84,-0.76,-0.08,-0.04,-0.64,108.43
0,3456,-0.91,-0.04,-0.01,-0.41,0.54,0.00,-0.01,-0.84,-0.76,-0.08,-0.04,-0.64,108.40
0,3461,-0.91,-0.04,-0.01,-0.41,0.54,0.00,-0.01,-0.84,-0.76,-0.08,-0.04,-0.64,108.38
0,3466,-0.91,-0.04,-0.01,-0.41,0.54,0.00,-0.01,-0.84,-0.76,-0.08,-0.04,-0.64,108.38
0,3471,-0.91,-0.04,-0.01,-0.41,0.54,0.00,-0.01,-0.84,-0.76,-0.08,-0.04,-0.64,108.38
0,3481,-0.91,-0.04,-0.01,-0.41,0.54,0.00,-0.01,-0.84,-0.76,-0.08,-0.04,-0.64,108.36
0,3486,-0.91,-0.04,-0.01,-0.41,0.54,0.00,-0.01,-0.84,-0.76,-0.08,-0.04,-0.64,108.34
0,3496,-0.91,-0.04,-0.01,-0.41,0.54,0.00,-0.01,-0.84,-0.76,-0.08,-0.04,-0.64,108.30
0,3501,-0.91,-0.04,-0.01,-0.41,0.54,0.00,-0.01,-0.84,-0.76,-0.08,-0.04,-0.64,108.28
0,3506,-0.91,-0.04,-0.01,-0.41,0.54,0.00,-0.01,-0.84,-0.76,-0.08,-0.04,-0.64,108.24
0,3511,-0.91,-0.04,-0.01,-0.41,0.54,0.00,-0.01,-0.84,-0.76,-0.08,-0.04,-0.64,108.20
0,3516,-0.91,-0.04,-0.01,-0.41,0.54,0.00,-0.01,-0.84,-0.76,-0.08,-0.04,-0.64,108.19
0,3526,-0.91,-0.04,-0.01,-0.41,0.54,0.00,-0.01,-0.84,-0.76,-0.08,-0.04,-0.64,108.08
0,3536,-0.91,-0.04,-0.01,-0.41,0.54,0.00,-0.01,-0.84,-0.76,-0.08,-0.04,-0.64,107.97
0,3541,-0.91,-0.04,-0.01,-0.41,0.54,0.00,-0.01,-0.84,-0.76,-0.08,-0.04,-0.64,107.91
0,3546,-0.91,-0.04,-0.01,-0.41,0.54,0.00,-0.01,-0.84,-0.76,-0.08,-0.04,-0.64,107.85
0,3556,-0.91,-0.04,-0.01,-0.41,0.54,0.00,-0.01,-0.84,-0.76,-0.08,-0.04,-0.64,107.65
0,3566,-0.91,-0.04,-0.01,-0.41,0.54,0.00,-0.01,-0.84,-0.76,-0.08,-0.04,-0.64,107.47
0,3571,-0.91,-0.04,-0.01,-0.41,0.54,0.00,-0.01,-0.84,-0.76,-0.08,-0.04,-0.64,107.32
0,3576,-0.91,-0.04,-0.01,-0.41,0.54,0.00,-0.01,-0.84,-0.76,-0.08,-0.04,-0.64,107.22
0,3591,-0.91,-0.04,-0.01,-0.41,0.54,0.00,-0.01,-0.84,-0.76,-0.08,-0.04,-0.64,106.88
0,3596,-0.91,-0.04,-0.01,-0.41,0.54,0.00,-0.01,-0.84,-0.76,-0.08,-0.04,-0.64,106.79
0,3601,-0.91,-0.04,-0.01,-0.41,0.54,0.00,-0.01,-0.84,-0.76,-0.08,-0.04,-0.64,106.68
0,3606,-0.91,-0.04,-0.01,-0.41,0.54,0.00,-0.01,-0.84,-0.76,-0.08,-0.05,-0.64,106.59
0,3616,-0.91,-0.04,-0.01,-0.41,0.54,0.00,-0.01,-0.84,-0.76,-0.08,-0.05,-0.64,106.35
0,3626,-0.91,-0.04,-0.01,-0.41,0.54,0.00,-0.01,-0.84,-0.76,-0.08,-0.05,-0.64,106.06
0,3631,-0.91,-0.04,-0.01,-0.41,0.54,0.00,-0.01,-0.84,-0.76,-0.08,-0.05,-0.64,105.96
0,3636,-0.91,-0.04,-0.01,-0.41,0.54,0.00,-0.01,-0.84,-0.76,-0.09,-0.05,-0.64,105.84
0,3641,-0.91,-0.04,-0.01,-0.41,0.54,0.00,-0.01,-0.84,-0.76,-0.09,-0.05,-0.64,105.66
0,3656,-0.91,-0.04,-0.01,-0.41,0.54,0.00,-0.01,-0.84,-0.76,-0.09,-0.06,-0.64,105.25
0,3661,-0.91,-0.04,-0.01,-0.41,0.54,0.00,-0.01,-0.84,-0.76,-0.09,-0.06,-0.64,105.07
0,3666,-0.91,-0.04,-0.01,-0.41,0.54,0.00,-0.01,-0.84,-0.76,-0.09,-0.06,-0.64,104.85
0,3671,-0.91,-0.04,-0.01,-0.41,0.54,0.00,-0.01,-0.84,-0.76,-0.09,-0.06,-0.64,104.67
0,3681,-0.91,-0.04,-0.01,-0.41,0.54,0.00,-0.01,-0.84,-0.76,-0.09,-0.06,-0.64,104.20
0,3686,-0.91,-0.04,-0.01,-0.41,0.54,0.00,-0.01,-0.84,-0.76,-0.09,-0.06,-0.64,103.99
0,3691,-0.91,-0.04,-0.01,-0.41,0.54,0.00,-0.01,-0.84,-0.76,-0.09,-0.06,-0.64,103.77
0,3701,-0.91,-0.04,-0.01,-0.41,0.54,0.00,-0.01,-0.84,-0.76,-0.09,-0.07,-0.64,103.29
0,3711,-0.91,-0.04,-0.01,-0.41,0.54,0.00,-0.01,-0.84,-0.76,-0.09,-0.07,-0.64,102.80
0,3716,-0.91,-0.04,-0.01,-0.41,0.54,0.00,-0.01,-0.84,-0.76,-0.09,-0.07,-0.64,102.55
0,3726,-0.91,-0.04,-0.01,-0.41,0.54,0.00,-0.01,-0.84,-0.76,-0.09,-0.07,-0.64,102.07
0,3736,-0.91,-0.04,-0.01,-0.41,0.54,0.00,-0.01,-0.84,-0.76,-0.10,-0.07,-0.64,101.64
0,3741,-0.91,-0.04,-0.01,-0.41,0.54,0.00,-0.01,-0.84,-0.76,-0.10,-0.08,-0.64,101.46
0,3746,-0.91,-0.04,-0.01,-0.41,0.54,0.00,-0.01,-0.84,-0.76,-0.10,-0.08,-0.64,101.30
0,3751,-0.91,-0.04,-0.01,-0.41,0.54,0.00,-0.01,-0.84,-0.76,-0.10,-0.08,-0.64,101.17
0,3756,-0.91,-0.04,-0.01,-0.41,0.54,0.00,-0.01,-0.84,-0.76,-0.10,-0.08,-0.64,100.99
0,3766,-0.91,-0.04,-0.01,-0.41,0.54,0.00,-0.01,-0.84,-0.76,-0.10,-0.08,-0.64,100.79
0,3771,-0.91,-0.04,-0.01,-0.41,0.54,0.00,-0.01,-0.84,-0.76,-0.11,-0.08,-0.64,100.71
0,3776,-0.91,-0.04,-0.01,-0.41,0.54,0.00,-0.01,-0.84,-0.76,-0.11,-0.09,-0.64,100.67
0,3791,-0.91,-0.04,-0.01,-0.41,0.54,0.00,-0.01,-0.84,-0.75,-0.12,-0.09,-0.64,100.55
0,3801,-0.91,-0.04,-0.01,-0.41,0.54,0.00,-0.01,-0.84,-0.75,-0.12,-0.10,-0.64,100.50
0,3806,-0.91,-0.04,-0.01,-0.41,0.54,0.00,-0.01,-0.84,-0.75,-0.13,-0.10,-0.64,100.51
0,3816,-0.91,-0.04,-0.01,-0.41,0.54,0.00,-0.01,-0.84,-0.75,-0.13,-0.10,-0.63,100.51
0,3821,-0.91,-0.04,-0.01,-0.41,0.54,0.00,-0.01,-0.84,-0.75,-0.14,-0.11,-0.63,100.51
0,3826,-0.91,-0.04,-0.01,-0.41,0.54,0.00,-0.01,-0.84,-0.75,-0.14,-0.11,-0.63,100.51
0,3831,-0.91,-0.04,-0.01,-0.41,0.54,0.00,-0.01,-0.84,-0.75,-0.14,-0.11,-0.63,100.51
0,3836,-0.91,-0.04,-0.01,-0.41,0.54,0.00,-0.01,-0.84,-0.75,-0.14,-0.12,-0.63,100.55
0,3846,-0.91,-0.04,-0.01,-0.41,0.54,0.00,-0.01,-0.84,-0.75,-0.15,-0.12,-0.63,100.51
0,3861,-0.91,-0.04,-0.01,-0.41,0.54,0.00,-0.01,-0.84,-0.75,-0.16,-0.13,-0.63,100.53
0,3866,-0.91,-0.04,-0.01,-0.41,0.54,0.00,-0.01,-0.84,-0.75,-0.17,-0.14,-0.63,100.51
0,3871,-0.91,-0.04,-0.01,-0.41,0.54,0.00,-0.01,-0.84,-0.75,-0.17,-0.14,-0.63,100.51
0,3881,-0.91,-0.04,-0.01,-0.41,0.54,0.00,-0.01,-0.84,-0.75,-0.18,-0.14,-0.62,100.54
0,3891,-0.91,-0.04,-0.01,-0.41,0.54,0.00,-0.01,-0.84,-0.74,-0.19,-0.15,-0.62,100.55
0,3896,-0.91,-0.04,-0.01,-0.41,0.54,0.00,-0.01,-0.84,-0.74,-0.19,-0.16,-0.62,100.55
0,3901,-0.91,-0.04,-0.01,-0.41,0.54,0.00,-0.01,-0.84,-0.74,-0.20,-0.16,-0.62,100.55
0,3906,-0.91,-0.04,-0.01,-0.41,0.54,0.00,-0.01,-0.84,-0.74,-0.20,-0.16,-0.62,100.53
0,3921,-0.91,-0.04,-0.01,-0.41,0.54,0.00,-0.01,-0.84,-0.74,-0.21,-0.17,-0.61,100.55
0,3926,-0.91,-0.04,-0.01,-0.41,0.54,0.00,-0.01,-0.84,-0.74,-0.22,-0.18,-0.61,100.51
0,3931,-0.91,-0.04,-0.01,-0.41,0.54,0.00,-0.01,-0.84,-0.74,-0.22,-0.18,-0.61,100.55
0,3941,-0.91,-0.04,-0.01,-0.41,0.54,0.00,-0.01,-0.84,-0.74,-0.23,-0.19,-0.61,100.55
0,3946,-0.91,-0.04,-0.01,-0.41,0.54,0.00,-0.01,-0.84,-0.73,-0.23,-0.19,-0.61,100.53
0,3951,-0.91,-0.04,-0.01,-0.41,0.54,0.00,-0.01,-0.84,-0.73,-0.23,-0.19,-0.61,100.58
0,3956,-0.91,-0.04,-0.01,-0.41,0.54,0.00,-0.01,-0.84,-0.73,-0.24,-0.19,-0.61,100.55
0,3966,-0.91,-0.04,-0.01,-0.41,0.54,0.00,-0.01,-0.84,-0.73,-0.24,-0.20,-0.61,100.55
0,3976,-0.91,-0.04,-0.01,-0.41,0.54,0.00,-0.01,-0.84,-0.73,-0.25,-0.20,-0.60,100.55
0,3981,-0.91,-0.04,-0.01,-0.41,0.54,0.00,-0.01,-0.84,-0.73,-0.25,-0.21,-0.60,100.58
0,3986,-0.91,-0.04,-0.01,-0.41,0.54,0.00,-0.01,-0.84,-0.73,-0.25,-0.21,-0.60,100.55
0,3996,-0.91,-0.04,-0.01,-0.41,0.54,0.00,-0.01,-0.84,-0.73,-0.26,-0.21,-0.60,100.56
0,4001,-0.91,-0.04,-0.01,-0.41,0.54,0.00,-0.01,-0.84,-0.72,-0.26,-0.22,-0.60,100.55
0,4006,-0.91,-0.04,-0.01,-0.41,0.54,0.00,-0.01,-0.84,-0.72,-0.26,-0.22,-0.60,100.54
0,4011,-0.91,-0.04,-0.01,-0.41,0.54,0.00,-0.01,-0.84,-0.72,-0.27,-0.22,-0.60,100.55
0,4016,-0.91,-0.04,-0.01,-0.41,0.54,0.00,-0.01,-0.84,-0.72,-0.27,-0.22,-0.60,100.53
0,4031,-0.91,-0.04,-0.01,-0.41,0.54,0.00,-0.01,-0.84,-0.72,-0.28,-0.23,-0.59,100.55
0,4036,-0.91,-0.04,-0.01,-0.41,0.54,0.00,-0.01,-0.84,-0.72,-0.28,-0.23,-0.59,100.57
0,4041,-0.91,-0.04,-0.01,-0.41,0.54,0.00,-0.01,-0.84,-0.72,-0.28,-0.23,-0.59,100.55
0,4051,-0.91,-0.04,-0.01,-0.41,0.54,0.00,-0.01,-0.84,-0.72,-0.28,-0.23,-0.59,100.57
0,4066,-0.91,-0.04,-0.01,-0.41,0.54,0.00,-0.01,-0.84,-0.71,-0.29,-0.24,-0.59,100.55
0,4071,-0.91,-0.04,-0.01,-0.41,0.54,0.00,-0.01,-0.84,-0.71,-0.29,-0.24,-0.59,100.55
0,4076,-0.91,-0.04,-0.01,-0.41,0.54,0.00,-0.01,-0.84,-0.71,-0.29,-0.24,-0.59,100.56
0,4086,-0.91,-0.04,-0.01,-0.41,0.54,0.00,-0.01,-0.84,-0.71,-0.30,-0.24,-0.58,100.58
0,4096,-0.91,-0.04,-0.01,-0.41,0.54,0.00,-0.01,-0.84,-0.71,-0.30,-0.25,-0.58,100.55
0,4101,-0.91,-0.04,-0.01,-0.41,0.54,0.00,-0.01,-0.84,-0.71,-0.30,-0.25,-0.58,100.55
0,4106,-0.91,-0.04,-0.01,-0.41,0.54,0.00,-0.01,-0.84,-0.71,-0.30,-0.25,-0.58,100.59
0,4116,-0.91,-0.04,-0.01,-0.41,0.54,0.00,-0.01,-0.84,-0.71,-0.31,-0.25,-0.58,100.57
0,4126,-0.91,-0.04,-0.01,-0.41,0.54,0.00,-0.01,-0.84,-0.71,-0.31,-0.25,-0.58,100.58
0,4131,-0.91,-0.04,-0.01,-0.41,0.54,0.00,-0.01,-0.84,-0.71,-0.31,-0.26,-0.58,100.55
0,4136,-0.91,-0.04,-0.01,-0.41,0.54,0.00,-0.01,-0.84,-0.71,-0.31,-0.26,-0.58,100.57
0,4146,-0.91,-0.04,-0.01,-0.41,0.54,0.00,-0.01,-0.84,-0.71,-0.32,-0.26,-0.57,100.59
0,4156,-0.91,-0.04,-0.01,-0.41,0.54,0.00,-0.01,-0.84,-0.70,-0.32,-0.26,-0.57,100.57
0,4161,-0.91,-0.04,-0.01,-0.41,0.54,0.00,-0.01,-0.84,-0.70,-0.32,-0.26,-0.57,100.57
0,4171,-0.91,-0.04,-0.01,-0.41,0.54,0.00,-0.01,-0.84,-0.70,-0.32,-0.27,-0.57,100.55
0,4181,-0.91,-0.04,-0.01,-0.41,0.54,0.00,-0.01,-0.84,-0.70,-0.33,-0.27,-0.57,100.57
0,4191,-0.91,-0.04,-0.01,-0.41,0.54,0.00,-0.01,-0.84,-0.70,-0.33,-0.27,-0.57,100.57
0,4196,-0.91,-0.04,-0.01,-0.41,0.54,0.00,-0.01,-0.84,-0.70,-0.33,-0.27,-0.57,100.55
0,4206,-0.91,-0.04,-0.01,-0.41,0.54,0.00,-0.01,-0.84,-0.70,-0.33,-0.27,-0.57,100.59
0,4211,-0.91,-0.04,-0.01,-0.41,0.54,0.00,-0.01,-0.84,-0.70,-0.33,-0.27,-0.57,100.57
0,4221,-0.91,-0.04,-0.01,-0.41,0.54,0.00,-0.01,-0.84,-0.70,-0.33,-0.27,-0.57,100.58
0,4231,-0.91,-0.04,-0.01,-0.41,0.54,0.00,-0.01,-0.84,-0.70,-0.33,-0.27,-0.57,100.57
0,4241,-0.91,-0.04,-0.01,-0.41,0.54,0.00,-0.01,-0.84,-0.70,-0.33,-0.27,-0.57,100.57
0,4246,-0.91,-0.04,-0.01,-0.41,0.54,0.00,-0.01,-0.84,-0.70,-0.33,-0.28,-0.57,100.56
0,4251,-0.91,-0.04,-0.01,-0.41,0.54,0.00,-0.01,-0.84,-0.70,-0.33,-0.28,-0.57,100.58
0,4256,-0.91,-0.04,-0.01,-0.41,0.54,0.00,-0.01,-0.84,-0.70,-0.34,-0.28,-0.57,100.57
0,4266,-0.91,-0.04,-0.01,-0.41,0.54,0.00,-0.01,-0.84,-0.70,-0.34,-0.28,-0.57,100.56
0,4276,-0.91,-0.04,-0.01,-0.41,0.54,0.00,-0.01,-0.84,-0.70,-0.34,-0.28,-0.57,100.57
0,4281,-0.91,-0.04,-0.01,-0.41,0.54,0.00,-0.01,-0.84,-0.70,-0.34,-0.28,-0.57,100.55
0,4286,-0.91,-0.04,-0.01,-0.41,0.54,0.00,-0.01,-0.84,-0.70,-0.34,-0.28,-0.57,100.58
0,4291,-0.91,-0.04,-0.01,-0.41,0.54,0.00,-0.01,-0.84,-0.70,-0.34,-0.28,-0.57,100.57
0,4296,-0.91,-0.04,-0.01,-0.41,0.54,0.00,-0.01,-0.84,-0.70,-0.34,-0.28,-0.57,100.59
0,4301,-0.91,-0.04,-0.01,-0.41,0.54,0.00,-0.01,-0.84,-0.70,-0.34,-0.28,-0.57,100.58
0,4306,-0.91,-0.04,-0.01,-0.41,0.54,0.00,-0.01,-0.84,-0.70,-0.34,-0.28,-0.57,100.58
0,4311,-0.91,-0.04,-0.01,-0.41,0.54,0.00,-0.01,-0.84,-0.70,-0.34,-0.28,-0.57,100.57
0,4321,-0.91,-0.04,-0.01,-0.41,0.54,0.00,-0.01,-0.84,-0.70,-0.34,-0.28,-0.57,100.57
0,4331,-0.91,-0.04,-0.01,-0.41,0.54,0.00,-0.01,-0.84,-0.70,-0.34,-0.28,-0.57,100.58
0,4336,-0.91,-0.04,-0.01,-0.41,0.54,0.00,-0.01,-0.84,-0.70,-0.34,-0.28,-0.57,100.56
0,4341,-0.91,-0.04,-0.01,-0.41,0.54,0.00,-0.01,-0.84,-0.70,-0.34,-0.28,-0.57,100.58
0,4346,-0.91,-0.04,-0.01,-0.41,0.54,0.00,-0.01,-0.84,-0.70,-0.34,-0.28,-0.57,100.56
0,4351,-0.91,-0.04,-0.01,-0.41,0.54,0.00,-0.01,-0.84,-0.70,-0.34,-0.28,-0.57,100.58
0,4356,-0.91,-0.04,-0.01,-0.41,0.54,0.00,-0.01,-0.84,-0.70,-0.34,-0.28,-0.57,100.55
0,4366,-0.91,-0.04,-0.01,-0.41,0.54,0.00,-0.01,-0.84,-0.70,-0.34,-0.28,-0.57,100.58
0,4371,-0.91,-0.04,-0.01,-0.41,0.54,0.00,-0.01,-0.84,-0.70,-0.34,-0.28,-0.57,100.56
0,4376,-0.91,-0.04,-0.01,-0.41,0.54,0.00,-0.01,-0.84,-0.70,-0.34,-0.28,-0.57,100.57
0,4386,-0.91,-0.04,-0.01,-0.41,0.54,0.00,-0.01,-0.84,-0.70,-0.34,-0.28,-0.57,100.57
0,4396,-0.91,-0.04,-0.01,-0.41,0.54,0.00,-0.01,-0.84,-0.70,-0.34,-0.27,-0.57,100.57
0,4401,-0.91,-0.04,-0.01,-0.41,0.54,0.00,-0.01,-0.84,-0.70,-0.34,-0.27,-0.57,100.58
0,4411,-0.91,-0.04,-0.01,-0.41,0.54,0.00,-0.01,-0.84,-0.70,-0.34,-0.27,-0.57,100.58
0,4416,-0.91,-0.04,-0.01,-0.41,0.54,0.00,-0.01,-0.84,-0.70,-0.34,-0.27,-0.57,100.57
0,4421,-0.91,-0.04,-0.01,-0.41,0.54,0.00,-0.01,-0.84,-0.70,-0.34,-0.27,-0.57,100.55
0,4426,-0.91,-0.04,-0.01,-0.41,0.54,0.00,-0.01,-0.84,-0.70,-0.34,-0.27,-0.57,100.57
0,4431,-0.91,-0.04,-0.01,-0.41,0.54,0.00,-0.01,-0.84,-0.70,-0.34,-0.27,-0.57,100.58
0,4441,-0.91,-0.04,-0.01,-0.41,0.54,0.00,-0.01,-0.84,-0.70,-0.34,-0.27,-0.57,100.59
0,4446,-0.91,-0.04,-0.01,-0.41,0.54,0.00,-0.01,-0.84,-0.70,-0.33,-0.27,-0.57,100.57
0,4451,-0.91,-0.04,-0.01,-0.41,0.54,0.00,-0.01,-0.84,-0.70,-0.33,-0.27,-0.57,100.58
0,4461,-0.91,-0.04,-0.01,-0.41,0.54,0.00,-0.01,-0.84,-0.70,-0.33,-0.27,-0.57,100.58
0,4476,-0.91,-0.04,-0.01,-0.41,0.54,0.00,-0.01,-0.84,-0.70,-0.33,-0.27,-0.57,100.56
0,4486,-0.91,-0.04,-0.01,-0.41,0.54,0.00,-0.01,-0.84,-0.70,-0.33,-0.27,-0.57,100.55
0,4496,-0.91,-0.04,-0.01,-0.41,0.54,0.00,-0.01,-0.84,-0.70,-0.32,-0.27,-0.57,100.57
0,4501,-0.91,-0.04,-0.01,-0.41,0.54,0.00,-0.01,-0.84,-0.70,-0.32,-0.27,-0.57,100.60
0,4506,-0.91,-0.04,-0.01,-0.41,0.54,0.00,-0.01,-0.84,-0.71,-0.32,-0.26,-0.57,100.58
0,4511,-0.91,-0.04,-0.01,-0.41,0.54,0.00,-0.01,-0.84,-0.71,-0.32,-0.26,-0.57,100.57
0,4516,-0.91,-0.04,-0.01,-0.41,0.54,0.00,-0.01,-0.84,-0.71,-0.32,-0.26,-0.57,100.58
0,4521,-0.91,-0.04,-0.01,-0.41,0.54,0.00,-0.01,-0.84,-0.71,-0.32,-0.26,-0.57,100.58
0,4526,-0.91,-0.04,-0.01,-0.41,0.54,0.00,-0.01,-0.84,-0.71,-0.32,-0.26,-0.57,100.57
0,4531,-0.91,-0.04,-0.01,-0.41,0.54,0.00,-0.01,-0.84,-0.71,-0.31,-0.26,-0.57,100.58
0,4541,-0.91,-0.04,-0.01,-0.41,0.54,0.00,-0.01,-0.84,-0.71,-0.31,-0.26,-0.58,100.55
0,4546,-0.91,-0.04,-0.01,-0.41,0.54,0.00,-0.01,-0.84,-0.71,-0.31,-0.25,-0.58,100.58
0,4551,-0.91,-0.04,-0.01,-0.41,0.54,0.00,-0.01,-0.84,-0.71,-0.31,-0.25,-0.58,100.60
0,4571,-0.91,-0.04,-0.01,-0.41,0.54,0.00,-0.01,-0.84,-0.72,-0.30,-0.25,-0.58,100.57
0,4576,-0.91,-0.04,-0.01,-0.41,0.54,0.00,-0.01,-0.84,-0.72,-0.29,-0.24,-0.58,100.56
0,4581,-0.91,-0.04,-0.01,-0.41,0.54,0.00,-0.01,-0.84,-0.72,-0.29,-0.24,-0.58,100.60
0,4586,-0.91,-0.04,-0.01,-0.41,0.54,0.00,-0.01,-0.84,-0.72,-0.29,-0.24,-0.58,100.58
0,4596,-0.91,-0.04,-0.01,-0.41,0.54,0.00,-0.01,-0.84,-0.72,-0.28,-0.23,-0.59,100.58
0,4611,-0.91,-0.04,-0.01,-0.41,0.54,0.00,-0.01,-0.84,-0.73,-0.27,-0.22,-0.59,100.59
0,4616,-0.91,-0.04,-0.01,-0.41,0.54,0.00,-0.01,-0.84,-0.73,-0.27,-0.22,-0.59,100.60
0,4621,-0.91,-0.04,-0.01,-0.41,0.54,0.00,-0.01,-0.84,-0.73,-0.26,-0.22,-0.59,100.58
0,4626,-0.91,-0.04,-0.01,-0.41,0.54,0.00,-0.01,-0.84,-0.73,-0.26,-0.22,-0.59,100.60
0,4636,-0.91,-0.04,-0.01,-0.41,0.54,0.00,-0.01,-0.84,-0.73,-0.25,-0.21,-0.60,100.60
0,4641,-0.91,-0.04,-0.01,-0.41,0.54,0.00,-0.01,-0.84,-0.73,-0.25,-0.21,-0.60,100.58
0,4646,-0.91,-0.04,-0.01,-0.41,0.54,0.00,-0.01,-0.84,-0.73,-0.25,-0.20,-0.60,100.58
0,4661,-0.91,-0.04,-0.01,-0.41,0.54,0.00,-0.01,-0.84,-0.74,-0.24,-0.20,-0.60,100.58
0,4666,-0.91,-0.04,-0.01,-0.41,0.54,0.00,-0.01,-0.84,-0.74,-0.23,-0.19,-0.60,100.56
0,4671,-0.91,-0.04,-0.01,-0.41,0.54,0.00,-0.01,-0.84,-0.74,-0.23,-0.19,-0.61,100.60
0,4676,-0.91,-0.04,-0.01,-0.41,0.54,0.00,-0.01,-0.84,-0.74,-0.23,-0.19,-0.61,100.58
0,4696,-0.91,-0.04,-0.01,-0.41,0.54,0.00,-0.01,-0.84,-0.74,-0.21,-0.17,-0.61,100.57
0,4701,-0.91,-0.04,-0.01,-0.41,0.54,0.00,-0.01,-0.84,-0.74,-0.21,-0.17,-0.62,100.57
0,4706,-0.91,-0.04,-0.01,-0.41,0.54,0.00,-0.01,-0.84,-0.74,-0.20,-0.17,-0.62,100.60
0,4711,-0.91,-0.04,-0.01,-0.41,0.54,0.00,-0.01,-0.84,-0.74,-0.20,-0.17,-0.62,100.58
0,4721,-0.91,-0.04,-0.01,-0.41,0.54,0.00,-0.01,-0.84,-0.74,-0.19,-0.16,-0.62,100.58
0,4726,-0.91,-0.04,-0.01,-0.41,0.54,0.00,-0.01,-0.84,-0.74,-0.19,-0.16,-0.62,100.60
0,4731,-0.91,-0.04,-0.01,-0.41,0.54,0.00,-0.01,-0.84,-0.74,-0.19,-0.15,-0.62,100.60
0,4736,-0.91,-0.04,-0.01,-0.41,0.54,0.00,-0.01,-0.84,-0.74,-0.18,-0.15,-0.62,100.64
0,4761,-0.91,-0.04,-0.01,-0.41,0.54,0.00,-0.01,-0.84,-0.75,-0.16,-0.13,-0.63,100.81
0,4766,-0.91,-0.04,-0.01,-0.41,0.54,0.00,-0.01,-0.84,-0.75,-0.16,-0.13,-0.63,100.87
0,4771,-0.91,-0.04,-0.01,-0.41,0.54,0.00,-0.01,-0.84,-0.75,-0.15,-0.13,-0.63,100.95
0,4776,-0.91,-0.04,-0.01,-0.41,0.54,0.00,-0.01,-0.84,-0.75,-0.15,-0.13,-0.63,101.03
0,4786,-0.91,-0.04,-0.01,-0.41,0.54,0.00,-0.01,-0.84,-0.75,-0.14,-0.12,-0.63,101.27
0,4791,-0.91,-0.04,-0.01,-0.41,0.54,0.00,-0.01,-0.84,-0.75,-0.14,-0.12,-0.63,101.40
0,4796,-0.91,-0.04,-0.01,-0.41,0.54,0.00,-0.01,-0.84,-0.75,-0.14,-0.12,-0.63,101.59
0,4801,-0.91,-0.04,-0.01,-0.41,0.54,0.00,-0.01,-0.84,-0.75,-0.14,-0.11,-0.64,101.78
0,4821,-0.91,-0.04,-0.01,-0.41,0.54,0.00,-0.01,-0.84,-0.75,-0.12,-0.10,-0.64,102.78
0,4826,-0.91,-0.04,-0.01,-0.41,0.54,0.00,-0.01,-0.84,-0.75,-0.12,-0.10,-0.64,103.10
0,4831,-0.91,-0.04,-0.01,-0.41,0.54,0.00,-0.01,-0.84,-0.75,-0.12,-0.10,-0.64,103.39
0,4846,-0.91,-0.04,-0.01,-0.41,0.54,0.00,-0.01,-0.84,-0.75,-0.11,-0.09,-0.64,104.29
0,4856,-0.91,-0.04,-0.01,-0.41,0.54,0.00,-0.01,-0.84,-0.75,-0.10,-0.09,-0.64,104.90
0,4861,-0.91,-0.04,-0.01,-0.41,0.54,0.00,-0.01,-0.84,-0.75,-0.10,-0.09,-0.64,105.22
0,4866,-0.91,-0.04,-0.01,-0.41,0.54,0.00,-0.01,-0.84,-0.75,-0.10,-0.08,-0.64,105.44
0,4876,-0.91,-0.04,-0.01,-0.41,0.54,0.00,-0.01,-0.84,-0.76,-0.10,-0.08,-0.64,105.78
0,4881,-0.91,-0.04,-0.01,-0.41,0.54,0.00,-0.01,-0.84,-0.76,-0.10,-0.08,-0.64,105.92
0,4886,-0.91,-0.04,-0.01,-0.41,0.54,0.00,-0.01,-0.84,-0.76,-0.09,-0.08,-0.64,106.12
0,4891,-0.91,-0.04,-0.01,-0.41,0.54,0.00,-0.01,-0.84,-0.76,-0.09,-0.08,-0.64,106.33
0,4896,-0.91,-0.04,-0.01,-0.41,0.54,0.00,-0.01,-0.84,-0.76,-0.09,-0.08,-0.64,106.51
0,4906,-0.91,-0.04,-0.01,-0.41,0.54,0.00,-0.01,-0.84,-0.76,-0.09,-0.07,-0.64,106.87
0,4911,-0.91,-0.04,-0.01,-0.41,0.54,0.00,-0.01,-0.84,-0.76,-0.09,-0.07,-0.64,107.09
0,4916,-0.91,-0.04,-0.01,-0.41,0.54,0.00,-0.01,-0.84,-0.76,-0.09,-0.07,-0.64,107.30
0,4926,-0.91,-0.04,-0.01,-0.41,0.54,0.00,-0.01,-0.84,-0.76,-0.09,-0.07,-0.64,107.89
0,4931,-0.91,-0.04,-0.01,-0.41,0.54,0.00,-0.01,-0.84,-0.76,-0.09,-0.07,-0.64,108.29
0,4936,-0.91,-0.04,-0.01,-0.41,0.54,0.00,-0.01,-0.84,-0.76,-0.09,-0.07,-0.64,108.59
0,4941,-0.91,-0.04,-0.01,-0.41,0.54,0.00,-0.01,-0.84,-0.76,-0.08,-0.07,-0.64,108.82
0,4956,-0.91,-0.04,-0.01,-0.41,0.54,0.00,-0.01,-0.84,-0.76,-0.08,-0.06,-0.64,109.32
0,4966,-0.91,-0.04,-0.01,-0.41,0.54,0.00,-0.01,-0.84,-0.76,-0.08,-0.06,-0.64,109.69
0,4971,-0.91,-0.04,-0.01,-0.41,0.54,0.00,-0.01,-0.84,-0.76,-0.08,-0.06,-0.64,109.86
0,4976,-0.91,-0.04,-0.01,-0.41,0.54,0.00,-0.01,-0.84,-0.76,-0.08,-0.06,-0.64,110.09
0,4981,-0.91,-0.04,-0.01,-0.41,0.54,0.00,-0.01,-0.84,-0.76,-0.08,-0.06,-0.64,110.30
0,4991,-0.91,-0.04,-0.01,-0.41,0.54,0.00,-0.01,-0.84,-0.76,-0.08,-0.05,-0.64,110.72
0,4996,-0.91,-0.04,-0.01,-0.41,0.54,0.00,-0.01,-0.84,-0.76,-0.08,-0.05,-0.64,110.89
0,5001,-0.91,-0.04,-0.01,-0.41,0.54,0.00,-0.01,-0.84,-0.76,-0.08,-0.05,-0.64,111.07
0,5006,-0.91,-0.04,-0.01,-0.41,0.54,0.00,-0.01,-0.84,-0.76,-0.08,-0.05,-0.64,111.26
0,5021,-0.91,-0.04,-0.01,-0.41,0.54,0.00,-0.01,-0.84,-0.76,-0.07,-0.05,-0.64,111.94
0,5026,-0.91,-0.04,-0.01,-0.41,0.54,0.00,-0.01,-0.84,-0.76,-0.07,-0.05,-0.65,112.35
0,5031,-0.91,-0.04,-0.01,-0.41,0.54,0.00,-0.01,-0.84,-0.76,-0.07,-0.05,-0.65,113.03
0,5036,-0.91,-0.04,-0.01,-0.41,0.54,0.00,-0.01,-0.84,-0.76,-0.07,-0.04,-0.65,113.52
0,5051,-0.91,-0.04,-0.01,-0.41,0.54,0.00,-0.01,-0.84,-0.76,-0.07,-0.04,-0.65,114.15
0,5056,-0.91,-0.04,-0.01,-0.41,0.54,0.00,-0.01,-0.84,-0.76,-0.07,-0.04,-0.65,114.32
0,5061,-0.91,-0.04,-0.01,-0.41,0.54,0.00,-0.01,-0.84,-0.76,-0.07,-0.04,-0.65,114.46
0,5066,-0.91,-0.04,-0.01,-0.41,0.54,0.00,-0.01,-0.84,-0.76,-0.07,-0.04,-0.65,114.60
0,5076,-0.91,-0.04,-0.01,-0.41,0.54,0.00,-0.01,-0.84,-0.75,-0.06,-0.04,-0.65,114.78
0,5081,-0.91,-0.04,-0.01,-0.41,0.54,0.00,-0.01,-0.84,-0.75,-0.06,-0.04,-0.65,114.86
0,5086,-0.91,-0.04,-0.01,-0.41,0.54,0.00,-0.01,-0.84,-0.75,-0.06,-0.04,-0.65,114.93
0,5091,-0.91,-0.04,-0.01,-0.41,0.54,0.00,-0.01,-0.84,-0.75,-0.06,-0.03,-0.65,115.01
0,5111,-0.91,-0.04,-0.01,-0.41,0.54,0.00,-0.01,-0.84,-0.75,-0.06,-0.03,-0.65,115.17
0,5116,-0.91,-0.04,-0.01,-0.41,0.54,0.00,-0.01,-0.84,-0.75,-0.06,-0.03,-0.65,115.21
0,5121,-0.91,-0.04,-0.01,-0.41,0.54,0.00,-0.01,-0.84,-0.75,-0.06,-0.03,-0.65,115.21
0,5136,-0.91,-0.04,-0.01,-0.41,0.54,0.00,-0.01,-0.84,-0.75,-0.06,-0.03,-0.65,115.21
0,5141,-0.91,-0.04,-0.01,-0.41,0.54,0.00,-0.01,-0.84,-0.75,-0.06,-0.03,-0.65,115.21
0,5146,-0.91,-0.04,-0.01,-0.41,0.54,0.00,-0.01,-0.84,-0.75,-0.06,-0.03,-0.65,115.21
0,5151,-0.91,-0.04,-0.01,-0.41,0.54,0.00,-0.01,-0.84,-0.75,-0.06,-0.03,-0.65,115.18
0,5161,-0.91,-0.04,-0.01,-0.41,0.54,0.00,-0.01,-0.84,-0.75,-0.06,-0.03,-0.65,115.16
0,5171,-0.91,-0.04,-0.01,-0.41,0.54,0.00,-0.01,-0.84,-0.75,-0.06,-0.03,-0.65,115.08
0,5176,-0.91,-0.04,-0.01,-0.41,0.54,0.00,-0.01,-0.84,-0.75,-0.06,-0.03,-0.65,114.99
0,5181,-0.91,-0.04,-0.01,-0.41,0.54,0.00,-0.01,-0.84,-0.75,-0.06,-0.03,-0.65,114.99
0,5186,-0.91,-0.04,-0.01,-0.41,0.54,0.00,-0.01,-0.84,-0.75,-0.06,-0.03,-0.65,114.96
0,5201,-0.91,-0.04,-0.01,-0.41,0.54,0.00,-0.01,-0.84,-0.75,-0.06,-0.03,-0.65,114.89
0,5206,-0.91,-0.04,-0.01,-0.41,0.54,0.00,-0.01,-0.84,-0.75,-0.06,-0.03,-0.65,114.90
0,5211,-0.91,-0.04,-0.01,-0.41,0.54,0.00,-0.01,-0.84,-0.75,-0.06,-0.03,-0.65,114.89
0,5221,-0.91,-0.04,-0.01,-0.41,0.54,0.00,-0.01,-0.84,-0.75,-0.06,-0.03,-0.65,114.89
0,5226,-0.91,-0.04,-0.01,-0.41,0.54,0.00,-0.01,-0.84,-0.75,-0.06,-0.03,-0.65,114.94
0,5231,-0.91,-0.04,-0.01,-0.41,0.54,0.00,-0.01,-0.84,-0.75,-0.06,-0.03,-0.65,114.89
0,5236,-0.91,-0.04,-0.01,-0.41,0.54,0.00,-0.01,-0.84,-0.75,-0.06,-0.03,-0.65,114.93
0,5246,-0.91,-0.04,-0.01,-0.41,0.54,0.00,-0.01,-0.84,-0.75,-0.06,-0.03,-0.65,114.80
0,5261,-0.91,-0.04,-0.01,-0.41,0.54,0.00,-0.01,-0.84,-0.75,-0.06,-0.03,-0.65,114.56
0,5266,-0.91,-0.04,-0.01,-0.41,0.54,0.00,-0.01,-0.84,-0.75,-0.06,-0.03,-0.65,114.46
0,5271,-0.91,-0.04,-0.01,-0.41,0.54,0.00,-0.01,-0.84,-0.75,-0.06,-0.03,-0.65,114.39
0,5276,-0.91,-0.04,-0.01,-0.41,0.54,0.00,-0.01,-0.84,-0.75,-0.06,-0.03,-0.65,114.29
0,5286,-0.91,-0.04,-0.01,-0.41,0.54,0.00,-0.01,-0.84,-0.75,-0.06,-0.03,-0.65,114.11
0,5291,-0.91,-0.04,-0.01,-0.41,0.54,0.00,-0.01,-0.84,-0.75,-0.06,-0.03,-0.65,113.99
0,5296,-0.91,-0.04,-0.01,-0.41,0.54,0.00,-0.01,-0.84,-0.75,-0.06,-0.03,-0.65,113.95
0,5301,-0.91,-0.04,-0.01,-0.41,0.54,0.00,-0.01,-0.84,-0.75,-0.06,-0.03,-0.65,113.83
0,5321,-0.91,-0.04,-0.01,-0.41,0.54,0.00,-0.01,-0.84,-0.75,-0.06,-0.03,-0.65,113.46
0,5326,-0.91,-0.04,-0.01,-0.41,0.54,0.00,-0.01,-0.84,-0.75,-0.06,-0.03,-0.65,113.32
0,5331,-0.91,-0.04,-0.01,-0.41,0.54,0.00,-0.01,-0.84,-0.75,-0.06,-0.03,-0.65,113.16
0,5346,-0.91,-0.04,-0.01,-0.41,0.54,0.00,-0.01,-0.84,-0.75,-0.06,-0.03,-0.65,112.51
0,5351,-0.91,-0.04,-0.01,-0.41,0.54,0.00,-0.01,-0.84,-0.75,-0.06,-0.03,-0.65,112.26
0,5356,-0.91,-0.04,-0.01,-0.41,0.54,0.00,-0.01,-0.84,-0.75,-0.06,-0.03,-0.65,112.04
0,5361,-0.91,-0.04,-0.01,-0.41,0.54,0.00,-0.01,-0.84,-0.75,-0.06,-0.03,-0.65,111.80
0,5366,-0.91,-0.04,-0.01,-0.41,0.54,0.00,-0.01,-0.84,-0.75,-0.06,-0.03,-0.65,111.58
0,5381,-0.91,-0.04,-0.01,-0.41,0.54,0.00,-0.01,-0.84,-0.75,-0.06,-0.04,-0.65,110.73
0,5386,-0.91,-0.04,-0.01,-0.41,0.54,0.00,-0.01,-0.84,-0.75,-0.06,-0.04,-0.65,110.46
0,5391,-0.91,-0.04,-0.01,-0.41,0.54,0.00,-0.01,-0.84,-0.75,-0.06,-0.04,-0.65,110.14
0,5401,-0.91,-0.04,-0.01,-0.41,0.54,0.00,-0.01,-0.84,-0.75,-0.06,-0.04,-0.66,109.47
0,5411,-0.91,-0.04,-0.01,-0.41,0.54,0.00,-0.01,-0.84,-0.75,-0.06,-0.04,-0.66,108.76
0,5416,-0.91,-0.04,-0.01,-0.41,0.54,0.00,-0.01,-0.84,-0.75,-0.07,-0.04,-0.66,108.41
0,5421,-0.91,-0.04,-0.01,-0.41,0.54,0.00,-0.01,-0.84,-0.75,-0.07,-0.04,-0.66,108.01
0,5431,-0.91,-0.04,-0.01,-0.41,0.54,0.00,-0.01,-0.84,-0.75,-0.07,-0.04,-0.66,107.29
0,5436,-0.91,-0.04,-0.01,-0.41,0.54,0.00,-0.01,-0.84,-0.75,-0.07,-0.05,-0.66,106.95
0,5441,-0.91,-0.04,-0.01,-0.41,0.54,0.00,-0.01,-0.84,-0.75,-0.07,-0.05,-0.66,106.56
0,5446,-0.91,-0.04,-0.01,-0.41,0.54,0.00,-0.01,-0.84,-0.75,-0.07,-0.05,-0.66,106.22
0,5451,-0.91,-0.04,-0.01,-0.41,0.54,0.00,-0.01,-0.84,-0.75,-0.07,-0.05,-0.66,105.88
0,5466,-0.91,-0.04,-0.01,-0.41,0.54,0.00,-0.01,-0.84,-0.75,-0.08,-0.05,-0.65,105.00
0,5471,-0.91,-0.04,-0.01,-0.41,0.54,0.00,-0.01,-0.84,-0.75,-0.08,-0.05,-0.65,104.70
0,5476,-0.91,-0.04,-0.01,-0.41,0.54,0.00,-0.01,-0.84,-0.75,-0.08,-0.05,-0.65,104.42
0,5481,-0.91,-0.04,-0.01,-0.41,0.54,0.00,-0.01,-0.84,-0.75,-0.08,-0.06,-0.65,104.13
0,5491,-0.91,-0.04,-0.01,-0.41,0.54,0.00,-0.01,-0.84,-0.75,-0.08,-0.06,-0.65,103.58
0,5496,-0.91,-0.04,-0.01,-0.41,0.54,0.00,-0.01,-0.84,-0.75,-0.08,-0.06,-0.65,103.25
0,5501,-0.91,-0.04,-0.01,-0.41,0.54,0.00,-0.01,-0.84,-0.75,-0.08,-0.06,-0.65,102.98
0,5511,-0.91,-0.04,-0.01,-0.41,0.54,0.00,-0.01,-0.84,-0.75,-0.09,-0.07,-0.65,102.43
0,5531,-0.91,-0.04,-0.01,-0.41,0.54,0.00,-0.01,-0.84,-0.75,-0.09,-0.07,-0.65,101.55
0,5536,-0.91,-0.04,-0.01,-0.41,0.54,0.00,-0.01,-0.84,-0.75,-0.09,-0.07,-0.65,101.37
0,5541,-0.91,-0.04,-0.01,-0.41,0.54,0.00,-0.01,-0.84,-0.75,-0.09,-0.08,-0.65,101.20
0,5551,-0.91,-0.04,-0.01,-0.41,0.54,0.00,-0.01,-0.84,-0.75,-0.10,-0.08,-0.65,100.92
0,5561,-0.91,-0.04,-0.01,-0.41,0.54,0.00,-0.01,-0.84,-0.75,-0.10,-0.08,-0.65,100.76
0,5566,-0.91,-0.04,-0.01,-0.41,0.54,0.00,-0.01,-0.84,-0.75,-0.10,-0.09,-0.65,100.66
0,5576,-0.91,-0.04,-0.01,-0.41,0.54,0.00,-0.01,-0.84,-0.75,-0.11,-0.09,-0.65,100.61
0,5586,-0.91,-0.04,-0.01,-0.41,0.54,0.00,-0.01,-0.84,-0.75,-0.11,-0.09,-0.65,100.50
0,5591,-0.91,-0.04,-0.01,-0.41,0.54,0.00,-0.01,-0.84,-0.75,-0.12,-0.10,-0.65,100.49
0,5596,-0.91,-0.04,-0.01,-0.41,0.54,0.00,-0.01,-0.84,-0.74,-0.12,-0.10,-0.65,100.44
0,5601,-0.91,-0.04,-0.01,-0.41,0.54,0.00,-0.01,-0.84,-0.74,-0.12,-0.10,-0.65,100.46
0,5606,-0.91,-0.04,-0.01,-0.41,0.54,0.00,-0.01,-0.84,-0.74,-0.13,-0.11,-0.65,100.50
0,5616,-0.91,-0.04,-0.01,-0.41,0.54,0.00,-0.01,-0.84,-0.74,-0.13,-0.11,-0.64,100.48
0,5621,-0.91,-0.04,-0.01,-0.41,0.54,0.00,-0.01,-0.84,-0.74,-0.14,-0.12,-0.64,100.48
0,5626,-0.91,-0.04,-0.01,-0.41,0.54,0.00,-0.01,-0.84,-0.74,-0.14,-0.12,-0.64,100.46
0,5636,-0.91,-0.04,-0.01,-0.41,0.54,0.00,-0.01,-0.84,-0.74,-0.15,-0.12,-0.64,100.48
0,5646,-0.91,-0.04,-0.01,-0.41,0.54,0.00,-0.01,-0.84,-0.74,-0.16,-0.13,-0.64,100.48
0,5651,-0.91,-0.04,-0.01,-0.41,0.54,0.00,-0.01,-0.84,-0.74,-0.16,-0.13,-0.64,100.51
0,5656,-0.91,-0.04,-0.01,-0.41,0.54,0.00,-0.01,-0.84,-0.74,-0.16,-0.14,-0.64,100.50
0,5666,-0.91,-0.04,-0.01,-0.41,0.54,0.00,-0.01,-0.84,-0.74,-0.17,-0.14,-0.64,100.51
0,5671,-0.91,-0.04,-0.01,-0.41,0.54,0.00,-0.01,-0.84,-0.74,-0.18,-0.15,-0.63,100.49
0,5676,-0.91,-0.04,-0.01,-0.41,0.54,0.00,-0.01,-0.84,-0.74,-0.18,-0.15,-0.63,100.52
0,5681,-0.91,-0.04,-0.01,-0.41,0.54,0.00,-0.01,-0.84,-0.74,-0.19,-0.16,-0.63,100.52
0,5686,-0.91,-0.04,-0.01,-0.41,0.54,0.00,-0.01,-0.84,-0.73,-0.19,-0.16,-0.63,100.54
0,5706,-0.91,-0.04,-0.01,-0.41,0.54,0.00,-0.01,-0.84,-0.73,-0.21,-0.18,-0.63,100.52
0,5711,-0.91,-0.04,-0.01,-0.41,0.54,0.00,-0.01,-0.84,-0.73,-0.21,-0.18,-0.62,100.53
0,5716,-0.91,-0.04,-0.01,-0.41,0.54,0.00,-0.01,-0.84,-0.73,-0.22,-0.18,-0.62,100.52
0,5721,-0.91,-0.04,-0.01,-0.41,0.54,0.00,-0.01,-0.84,-0.73,-0.22,-0.19,-0.62,100.52
0,5731,-0.91,-0.04,-0.01,-0.41,0.54,0.00,-0.01,-0.84,-0.72,-0.23,-0.20,-0.62,100.52
0,5736,-0.91,-0.04,-0.01,-0.41,0.54,0.00,-0.01,-0.84,-0.72,-0.24,-0.20,-0.62,100.52
0,5741,-0.91,-0.04,-0.01,-0.41,0.54,0.00,-0.01,-0.84,-0.72,-0.24,-0.20,-0.62,100.52
0,5751,-0.91,-0.04,-0.01,-0.41,0.54,0.00,-0.01,-0.84,-0.72,-0.25,-0.21,-0.62,100.54
0,5766,-0.91,-0.04,-0.01,-0.41,0.54,0.00,-0.01,-0.84,-0.71,-0.27,-0.22,-0.61,100.54
0,5771,-0.91,-0.04,-0.01,-0.41,0.54,0.00,-0.01,-0.84,-0.71,-0.27,-0.23,-0.61,100.52
0,5776,-0.91,-0.04,-0.01,-0.41,0.54,0.00,-0.01,-0.84,-0.71,-0.28,-0.23,-0.61,100.52
0,5786,-0.91,-0.04,-0.01,-0.41,0.54,0.00,-0.01,-0.84,-0.70,-0.29,-0.24,-0.60,100.52
0,5791,-0.91,-0.04,-0.01,-0.41,0.54,0.00,-0.01,-0.84,-0.70,-0.29,-0.24,-0.60,100.54
0,5796,-0.91,-0.04,-0.01,-0.41,0.54,0.00,-0.01,-0.84,-0.70,-0.29,-0.25,-0.60,100.54
0,5801,-0.91,-0.04,-0.01,-0.41,0.54,0.00,-0.01,-0.84,-0.70,-0.30,-0.25,-0.60,100.53
0,5811,-0.91,-0.04,-0.01,-0.41,0.54,0.00,-0.01,-0.84,-0.69,-0.31,-0.26,-0.60,100.54
0,5821,-0.91,-0.04,-0.01,-0.41,0.54,0.00,-0.01,-0.84,-0.69,-0.31,-0.27,-0.59,100.50
0,5826,-0.91,-0.04,-0.01,-0.41,0.54,0.00,-0.01,-0.84,-0.69,-0.32,-0.27,-0.59,100.56
0,5831,-0.91,-0.04,-0.01,-0.41,0.54,0.00,-0.01,-0.84,-0.69,-0.32,-0.27,-0.59,100.54
0,5836,-0.91,-0.04,-0.01,-0.41,0.54,0.00,-0.01,-0.84,-0.68,-0.32,-0.28,-0.59,100.58
0,5851,-0.91,-0.04,-0.01,-0.41,0.54,0.00,-0.01,-0.84,-0.68,-0.33,-0.28,-0.59,100.54
0,5856,-0.91,-0.04,-0.01,-0.41,0.54,0.00,-0.01,-0.84,-0.68,-0.34,-0.29,-0.59,100.57
0,5861,-0.91,-0.04,-0.01,-0.41,0.54,0.00,-0.01,-0.84,-0.68,-0.34,-0.29,-0.59,100.55
0,5866,-0.91,-0.04,-0.01,-0.41,0.54,0.00,-0.01,-0.84,-0.67,-0.34,-0.29,-0.59,100.54
0,5871,-0.91,-0.04,-0.01,-0.41,0.54,0.00,-0.01,-0.84,-0.67,-0.35,-0.29,-0.58,100.54
0,5876,-0.91,-0.04,-0.01,-0.41,0.54,0.00,-0.01,-0.84,-0.67,-0.35,-0.30,-0.58,100.54
0,5881,-0.91,-0.04,-0.01,-0.41,0.54,0.00,-0.01,-0.84,-0.67,-0.35,-0.30,-0.58,100.54
0,5886,-0.91,-0.04,-0.01,-0.41,0.54,0.00,-0.01,-0.84,-0.67,-0.36,-0.30,-0.58,100.56
0,5906,-0.91,-0.04,-0.01,-0.41,0.54,0.00,-0.01,-0.84,-0.66,-0.37,-0.31,-0.58,100.54
0,5911,-0.91,-0.04,-0.01,-0.41,0.54,0.00,-0.01,-0.84,-0.66,-0.37,-0.31,-0.58,100.52
0,5916,-0.91,-0.04,-0.01,-0.41,0.54,0.00,-0.01,-0.84,-0.65,-0.37,-0.31,-0.58,100.56
0,5921,-0.91,-0.04,-0.01,-0.41,0.54,0.00,-0.01,-0.84,-0.65,-0.37,-0.31,-0.58,100.54
0,5931,-0.91,-0.04,-0.01,-0.41,0.54,0.00,-0.01,-0.84,-0.65,-0.37,-0.31,-0.58,100.56
0,5936,-0.91,-0.04,-0.01,-0.41,0.54,0.00,-0.01,-0.84,-0.65,-0.38,-0.32,-0.58,100.54
0,5941,-0.91,-0.04,-0.01,-0.41,0.54,0.00,-0.01,-0.84,-0.65,-0.38,-0.32,-0.58,100.54
0,5946,-0.91,-0.04,-0.01,-0.41,0.54,0.00,-0.01,-0.84,-0.65,-0.38,-0.32,-0.58,100.57
0,5971,-0.91,-0.04,-0.01,-0.41,0.54,0.00,-0.01,-0.84,-0.64,-0.38,-0.32,-0.58,100.56
0,5976,-0.91,-0.04,-0.01,-0.41,0.54,0.00,-0.01,-0.84,-0.64,-0.37,-0.32,-0.58,100.57
0,5981,-0.91,-0.04,-0.01,-0.41,0.54,0.00,-0.01,-0.84,-0.64,-0.37,-0.32,-0.58,100.56
0,5986,-0.91,-0.04,-0.01,-0.41,0.54,0.00,-0.01,-0.84,-0.64,-0.37,-0.32,-0.58,100.54
0,5996,-0.91,-0.04,-0.01,-0.41,0.54,0.00,-0.01,-0.84,-0.64,-0.37,-0.32,-0.58,100.56
0,6001,-0.91,-0.04,-0.01,-0.41,0.54,0.00,-0.01,-0.84,-0.64,-0.37,-0.32,-0.59,100.55
0,6006,-0.91,-0.04,-0.01,-0.41,0.54,0.00,-0.01,-0.84,-0.64,-0.37,-0.32,-0.59,100.54
0,6011,-0.91,-0.04,-0.01,-0.41,0.54,0.00,-0.01,-0.84,-0.64,-0.37,-0.32,-0.59,100.56
0,6026,-0.91,-0.04,-0.01,-0.41,0.54,0.00,-0.01,-0.84,-0.64,-0.37,-0.32,-0.59,100.55
0,6031,-0.91,-0.04,-0.01,-0.41,0.54,0.00,-0.01,-0.84,-0.64,-0.37,-0.32,-0.59,100.54
0,6036,-0.91,-0.04,-0.01,-0.41,0.54,0.00,-0.01,-0.84,-0.64,-0.37,-0.32,-0.59,100.56
0,6046,-0.91,-0.04,-0.01,-0.41,0.54,0.00,-0.01,-0.84,-0.64,-0.36,-0.32,-0.60,100.60
0,6056,-0.91,-0.04,-0.01,-0.41,0.54,0.00,-0.01,-0.84,-0.64,-0.36,-0.31,-0.60,100.54
0,6061,-0.91,-0.04,-0.01,-0.41,0.54,0.00,-0.01,-0.84,-0.64,-0.36,-0.31,-0.60,100.56
0,6066,-0.91,-0.04,-0.01,-0.41,0.54,0.00,-0.01,-0.84,-0.64,-0.36,-0.31,-0.60,100.58
0,6081,-0.91,-0.04,-0.01,-0.41,0.54,0.00,-0.01,-0.84,-0.64,-0.35,-0.31,-0.61,100.58
0,6086,-0.91,-0.04,-0.01,-0.41,0.54,0.00,-0.01,-0.84,-0.64,-0.35,-0.31,-0.61,100.57
0,6091,-0.91,-0.04,-0.01,-0.41,0.54,0.00,-0.01,-0.84,-0.64,-0.35,-0.31,-0.61,100.56
0,6096,-0.91,-0.04,-0.01,-0.41,0.54,0.00,-0.01,-0.84,-0.64,-0.35,-0.31,-0.61,100.58
0,6111,-0.91,-0.04,-0.01,-0.41,0.54,0.00,-0.01,-0.84,-0.64,-0.35,-0.30,-0.61,100.56
0,6121,-0.91,-0.04,-0.01,-0.41,0.54,0.00,-0.01,-0.84,-0.64,-0.34,-0.30,-0.61,100.58
0,6126,-0.91,-0.04,-0.01,-0.41,0.54,0.00,-0.01,-0.84,-0.64,-0.34,-0.30,-0.61,100.54
0,6131,-0.91,-0.04,-0.01,-0.41,0.54,0.00,-0.01,-0.84,-0.64,-0.34,-0.30,-0.62,100.56
0,6136,-0.91,-0.04,-0.01,-0.41,0.54,0.00,-0.01,-0.84,-0.65,-0.34,-0.29,-0.62,100.54
0,6151,-0.91,-0.04,-0.01,-0.41,0.54,0.00,-0.01,-0.84,-0.65,-0.34,-0.29,-0.62,100.57
0,6156,-0.91,-0.04,-0.01,-0.41,0.54,0.00,-0.01,-0.84,-0.65,-0.34,-0.29,-0.62,100.54
0,6161,-0.91,-0.04,-0.01,-0.41,0.54,0.00,-0.01,-0.84,-0.65,-0.34,-0.29,-0.62,100.57
0,6166,-0.91,-0.04,-0.01,-0.41,0.54,0.00,-0.01,-0.84,-0.65,-0.34,-0.29,-0.62,100.58
0,6181,-0.91,-0.04,-0.01,-0.41,0.54,0.00,-0.01,-0.84,-0.65,-0.33,-0.29,-0.62,100.54
0,6186,-0.91,-0.04,-0.01,-0.41,0.54,0.00,-0.01,-0.84,-0.65,-0.33,-0.29,-0.62,100.56
0,6191,-0.91,-0.04,-0.01,-0.41,0.54,0.00,-0.01,-0.84,-0.65,-0.33,-0.28,-0.62,100.58
0,6201,-0.91,-0.04,-0.01,-0.41,0.54,0.00,-0.01,-0.84,-0.66,-0.32,-0.28,-0.62,100.57
0,6206,-0.91,-0.04,-0.01,-0.41,0.54,0.00,-0.01,-0.84,-0.66,-0.32,-0.28,-0.62,100.56
0,6211,-0.91,-0.04,-0.01,-0.41,0.54,0.00,-0.01,-0.84,-0.66,-0.32,-0.28,-0.62,100.58
0,6216,-0.91,-0.04,-0.01,-0.41,0.54,0.00,-0.01,-0.84,-0.66,-0.32,-0.28,-0.62,100.57
0,6221,-0.91,-0.04,-0.01,-0.41,0.54,0.00,-0.01,-0.84,-0.66,-0.32,-0.28,-0.62,100.58
0,6231,-0.91,-0.04,-0.01,-0.41,0.54,0.00,-0.01,-0.84,-0.66,-0.31,-0.28,-0.62,100.56
0,6236,-0.91,-0.04,-0.01,-0.41,0.54,0.00,-0.01,-0.84,-0.67,-0.31,-0.27,-0.62,100.58
0,6241,-0.91,-0.04,-0.01,-0.41,0.54,0.00,-0.01,-0.84,-0.67,-0.31,-0.27,-0.62,100.58
0,6251,-0.91,-0.04,-0.01,-0.41,0.54,0.00,-0.01,-0.84,-0.67,-0.30,-0.27,-0.62,100.56
0,6256,-0.91,-0.04,-0.01,-0.41,0.54,0.00,-0.01,-0.84,-0.67,-0.30,-0.27,-0.62,100.56
0,6261,-0.91,-0.04,-0.01,-0.41,0.54,0.00,-0.01,-0.84,-0.67,-0.30,-0.27,-0.62,100.56
0,6266,-0.91,-0.04,-0.01,-0.41,0.54,0.00,-0.01,-0.84,-0.67,-0.29,-0.26,-0.62,100.54
0,6271,-0.91,-0.04,-0.01,-0.41,0.54,0.00,-0.01,-0.84,-0.68,-0.29,-0.26,-0.62,100.58
0,6286,-0.91,-0.04,-0.01,-0.41,0.54,0.00,-0.01,-0.84,-0.68,-0.28,-0.25,-0.63,100.56
0,6291,-0.91,-0.04,-0.01,-0.41,0.54,0.00,-0.01,-0.84,-0.68,-0.28,-0.25,-0.63,100.56
0,6296,-0.91,-0.04,-0.01,-0.41,0.54,0.00,-0.01,-0.84,-0.68,-0.28,-0.25,-0.63,100.57
0,6306,-0.91,-0.04,-0.01,-0.41,0.54,0.00,-0.01,-0.84,-0.68,-0.27,-0.24,-0.63,100.56
0,6326,-0.91,-0.04,-0.01,-0.41,0.54,0.00,-0.01,-0.84,-0.69,-0.26,-0.23,-0.64,100.58
0,6331,-0.91,-0.04,-0.01,-0.41,0.54,0.00,-0.01,-0.84,-0.69,-0.25,-0.23,-0.64,100.56
0,6336,-0.91,-0.04,-0.01,-0.41,0.54,0.00,-0.01,-0.84,-0.69,-0.25,-0.22,-0.64,100.58
0,6341,-0.91,-0.04,-0.01,-0.41,0.54,0.00,-0.01,-0.84,-0.69,-0.25,-0.22,-0.64,100.56
0,6356,-0.91,-0.04,-0.01,-0.41,0.54,0.00,-0.01,-0.84,-0.69,-0.23,-0.21,-0.65,100.58
0,6361,-0.91,-0.04,-0.01,-0.41,0.54,0.00,-0.01,-0.84,-0.70,-0.23,-0.20,-0.65,100.56
0,6366,-0.91,-0.04,-0.01,-0.41,0.54,0.00,-0.01,-0.84,-0.70,-0.22,-0.20,-0.65,100.56
0,6371,-0.91,-0.04,-0.01,-0.41,0.54,0.00,-0.01,-0.84,-0.70,-0.22,-0.20,-0.65,100.60
0,6386,-0.91,-0.04,-0.01,-0.41,0.54,0.00,-0.01,-0.84,-0.70,-0.21,-0.19,-0.66,100.56
0,6391,-0.91,-0.04,-0.01,-0.41,0.54,0.00,-0.01,-0.84,-0.70,-0.21,-0.18,-0.66,100.55
0,6396,-0.91,-0.04,-0.01,-0.41,0.54,0.00,-0.01,-0.84,-0.70,-0.20,-0.18,-0.66,100.56
0,6406,-0.91,-0.04,-0.01,-0.41,0.54,0.00,-0.01,-0.84,-0.70,-0.20,-0.17,-0.66,100.57
0,6416,-0.91,-0.04,-0.01,-0.41,0.54,0.00,-0.01,-0.84,-0.70,-0.19,-0.17,-0.66,100.57
0,6421,-0.91,-0.04,-0.01,-0.41,0.54,0.00,-0.01,-0.84,-0.71,-0.19,-0.16,-0.66,100.58
0,6426,-0.91,-0.04,-0.01,-0.41,0.54,0.00,-0.01,-0.84,-0.71,-0.18,-0.16,-0.66,100.57
0,6441,-0.91,-0.04,-0.01,-0.41,0.54,0.00,-0.01,-0.84,-0.71,-0.18,-0.15,-0.67,100.62
0,6451,-0.91,-0.04,-0.01,-0.41,0.54,0.00,-0.01,-0.84,-0.71,-0.17,-0.15,-0.67,100.60
0,6456,-0.91,-0.04,-0.01,-0.41,0.54,0.00,-0.01,-0.84,-0.71,-0.17,-0.15,-0.67,100.62
0,6466,-0.91,-0.04,-0.01,-0.41,0.54,0.00,-0.01,-0.84,-0.71,-0.16,-0.14,-0.67,100.62
0,6471,-0.91,-0.04,-0.01,-0.41,0.54,0.00,-0.01,-0.84,-0.71,-0.16,-0.14,-0.67,100.63
0,6481,-0.91,-0.04,-0.01,-0.41,0.54,0.00,-0.01,-0.84,-0.71,-0.16,-0.14,-0.67,100.66
0,6491,-0.91,-0.04,-0.01,-0.41,0.54,0.00,-0.01,-0.84,-0.71,-0.15,-0.13,-0.67,100.70
0,6501,-0.91,-0.04,-0.01,-0.41,0.54,0.00,-0.01,-0.84,-0.71,-0.15,-0.13,-0.67,100.72
0,6506,-0.91,-0.04,-0.01,-0.41,0.54,0.00,-0.01,-0.84,-0.71,-0.15,-0.13,-0.67,100.72
0,6511,-0.91,-0.04,-0.01,-0.41,0.54,0.00,-0.01,-0.84,-0.71,-0.15,-0.13,-0.67,100.76
0,6516,-0.91,-0.04,-0.01,-0.41,0.54,0.00,-0.01,-0.84,-0.71,-0.14,-0.12,-0.67,100.80
0,6521,-0.91,-0.04,-0.01,-0.41,0.54,0.00,-0.01,-0.84,-0.71,-0.14,-0.12,-0.67,100.82
0,6526,-0.91,-0.04,-0.01,-0.41,0.54,0.00,-0.01,-0.84,-0.71,-0.14,-0.12,-0.67,100.84
0,6536,-0.91,-0.04,-0.01,-0.41,0.54,0.00,-0.01,-0.84,-0.71,-0.14,-0.12,-0.67,100.90
0,6541,-0.91,-0.04,-0.01,-0.41,0.54,0.00,-0.01,-0.84,-0.72,-0.14,-0.12,-0.67,100.96
0,6546,-0.91,-0.04,-0.01,-0.41,0.54,0.00,-0.01,-0.84,-0.72,-0.14,-0.12,-0.67,100.96
0,6551,-0.91,-0.04,-0.01,-0.41,0.54,0.00,-0.01,-0.84,-0.72,-0.13,-0.12,-0.67,101.02
0,6561,-0.91,-0.04,-0.01,-0.41,0.54,0.00,-0.01,-0.84,-0.72,-0.13,-0.11,-0.67,101.11
0,6566,-0.91,-0.04,-0.01,-0.41,0.54,0.00,-0.01,-0.84,-0.72,-0.13,-0.11,-0.67,101.15
0,6576,-0.91,-0.04,-0.01,-0.41,0.54,0.00,-0.01,-0.84,-0.72,-0.12,-0.11,-0.68,101.29
0,6586,-0.91,-0.04,-0.01,-0.41,0.54,0.00,-0.01,-0.84,-0.72,-0.12,-0.11,-0.68,101.43
0,6596,-0.91,-0.04,-0.01,-0.41,0.54,0.00,-0.01,-0.84,-0.72,-0.12,-0.10,-0.68,101.61
0,6601,-0.91,-0.04,-0.01,-0.41,0.54,0.00,-0.01,-0.84,-0.72,-0.12,-0.10,-0.68,101.71
0,6606,-0.91,-0.04,-0.01,-0.41,0.54,0.00,-0.01,-0.84,-0.72,-0.12,-0.10,-0.68,101.80
0,6611,-0.91,-0.04,-0.01,-0.41,0.54,0.00,-0.01,-0.84,-0.72,-0.11,-0.10,-0.68,101.96
0,6616,-0.91,-0.04,-0.01,-0.41,0.54,0.00,-0.01,-0.84,-0.72,-0.11,-0.10,-0.68,102.12
0,6621,-0.91,-0.04,-0.01,-0.41,0.54,0.00,-0.01,-0.84,-0.72,-0.11,-0.10,-0.68,102.26
0,6626,-0.91,-0.04,-0.01,-0.41,0.54,0.00,-0.01,-0.84,-0.72,-0.11,-0.09,-0.68,102.46
0,6631,-0.91,-0.04,-0.01,-0.41,0.54,0.00,-0.01,-0.84,-0.72,-0.11,-0.09,-0.68,102.68
0,6641,-0.91,-0.04,-0.01,-0.41,0.54,0.00,-0.01,-0.84,-0.72,-0.10,-0.09,-0.68,103.05
0,6646,-0.91,-0.04,-0.01,-0.41,0.54,0.00,-0.01,-0.84,-0.72,-0.10,-0.09,-0.68,103.28
0,6651,-0.91,-0.04,-0.01,-0.41,0.54,0.00,-0.01,-0.84,-0.72,-0.10,-0.09,-0.68,103.53
0,6666,-0.91,-0.04,-0.01,-0.41,0.54,0.00,-0.01,-0.84,-0.72,-0.09,-0.08,-0.68,104.23
0,6676,-0.91,-0.04,-0.01,-0.41,0.54,0.00,-0.01,-0.84,-0.72,-0.09,-0.08,-0.68,104.74
0,6681,-0.91,-0.04,-0.01,-0.41,0.54,0.00,-0.01,-0.84,-0.72,-0.09,-0.08,-0.68,105.02
0,6686,-0.91,-0.04,-0.01,-0.41,0.54,0.00,-0.01,-0.84,-0.72,-0.09,-0.07,-0.68,105.32
0,6696,-0.91,-0.04,-0.01,-0.41,0.54,0.00,-0.01,-0.84,-0.72,-0.08,-0.07,-0.68,105.83
0,6706,-0.91,-0.04,-0.01,-0.41,0.54,0.00,-0.01,-0.84,-0.72,-0.08,-0.07,-0.68,106.36
0,6711,-0.91,-0.04,-0.01,-0.41,0.54,0.00,-0.01,-0.84,-0.72,-0.08,-0.06,-0.68,106.64
0,6716,-0.91,-0.04,-0.01,-0.41,0.54,0.00,-0.01,-0.84,-0.72,-0.08,-0.06,-0.69,106.88
0,6731,-0.91,-0.04,-0.01,-0.41,0.54,0.00,-0.01,-0.84,-0.72,-0.07,-0.06,-0.69,107.63
0,6741,-0.91,-0.04,-0.01,-0.41,0.54,0.00,-0.01,-0.84,-0.72,-0.07,-0.06,-0.69,108.02
0,6746,-0.91,-0.04,-0.01,-0.41,0.54,0.00,-0.01,-0.84,-0.72,-0.07,-0.05,-0.69,108.24
0,6756,-0.91,-0.04,-0.01,-0.41,0.54,0.00,-0.01,-0.84,-0.72,-0.07,-0.05,-0.69,108.69
0,6761,-0.91,-0.04,-0.01,-0.41,0.54,0.00,-0.01,-0.84,-0.72,-0.06,-0.05,-0.69,108.91
0,6766,-0.91,-0.04,-0.01,-0.41,0.54,0.00,-0.01,-0.84,-0.72,-0.06,-0.05,-0.69,109.16
0,6771,-0.91,-0.04,-0.01,-0.41,0.54,0.00,-0.01,-0.84,-0.72,-0.06,-0.05,-0.69,109.42
0,6776,-0.91,-0.04,-0.01,-0.41,0.54,0.00,-0.01,-0.84,-0.72,-0.06,-0.05,-0.69,109.66
0,6781,-0.91,-0.04,-0.01,-0.41,0.54,0.00,-0.01,-0.84,-0.72,-0.06,-0.05,-0.69,109.83
0,6801,-0.91,-0.04,-0.01,-0.41,0.54,0.00,-0.01,-0.84,-0.72,-0.06,-0.04,-0.69,110.60
0,6806,-0.91,-0.04,-0.01,-0.41,0.54,0.00,-0.01,-0.84,-0.72,-0.05,-0.04,-0.69,110.78
0,6811,-0.91,-0.04,-0.01,-0.41,0.54,0.00,-0.01,-0.84,-0.72,-0.05,-0.04,-0.69,110.98
0,6821,-0.91,-0.04,-0.01,-0.41,0.54,0.00,-0.01,-0.84,-0.72,-0.05,-0.04,-0.69,111.35
0,6831,-0.91,-0.04,-0.01,-0.41,0.54,0.00,-0.01,-0.84,-0.72,-0.05,-0.04,-0.69,111.67
0,6836,-0.91,-0.04,-0.01,-0.41,0.54,0.00,-0.01,-0.84,-0.72,-0.05,-0.03,-0.69,111.83
0,6841,-0.91,-0.04,-0.01,-0.41,0.54,0.00,-0.01,-0.84,-0.72,-0.05,-0.03,-0.69,111.93
0,6846,-0.91,-0.04,-0.01,-0.41,0.54,0.00,-0.01,-0.84,-0.72,-0.05,-0.03,-0.69,112.03
0,6856,-0.91,-0.04,-0.01,-0.41,0.54,0.00,-0.01,-0.84,-0.72,-0.05,-0.03,-0.69,112.18
0,6861,-0.91,-0.04,-0.01,-0.41,0.54,0.00,-0.01,-0.84,-0.72,-0.05,-0.03,-0.69,112.22
0,6876,-0.91,-0.04,-0.01,-0.41,0.54,0.00,-0.01,-0.84,-0.72,-0.05,-0.03,-0.69,112.28
0,6881,-0.91,-0.04,-0.01,-0.41,0.54,0.00,-0.01,-0.84,-0.72,-0.05,-0.03,-0.69,112.34
0,6886,-0.91,-0.04,-0.01,-0.41,0.54,0.00,-0.01,-0.84,-0.72,-0.04,-0.03,-0.69,112.40
0,6891,-0.91,-0.04,-0.01,-0.41,0.54,0.00,-0.01,-0.84,-0.72,-0.04,-0.03,-0.69,112.44
0,6896,-0.91,-0.04,-0.01,-0.41,0.54,0.00,-0.01,-0.84,-0.72,-0.04,-0.03,-0.69,112.46
0,6906,-0.91,-0.04,-0.01,-0.41,0.54,0.00,-0.01,-0.84,-0.72,-0.04,-0.03,-0.69,112.48
0,6911,-0.91,-0.04,-0.01,-0.41,0.54,0.00,-0.01,-0.84,-0.72,-0.04,-0.03,-0.69,112.52
0,6916,-0.91,-0.04,-0.01,-0.41,0.54,0.00,-0.01,-0.84,-0.72,-0.04,-0.02,-0.69,112.54
0,6921,-0.91,-0.04,-0.01,-0.41,0.54,0.00,-0.01,-0.84,-0.72,-0.04,-0.02,-0.69,112.58
0,6926,-0.91,-0.04,-0.01,-0.41,0.54,0.00,-0.01,-0.84,-0.72,-0.04,-0.02,-0.69,112.62
0,6941,-0.91,-0.04,-0.01,-0.41,0.54,0.00,-0.01,-0.84,-0.72,-0.04,-0.02,-0.69,112.69
0,6946,-0.91,-0.04,-0.01,-0.41,0.54,0.00,-0.01,-0.84,-0.72,-0.04,-0.02,-0.69,112.74
0,6951,-0.91,-0.04,-0.01,-0.41,0.54,0.00,-0.01,-0.84,-0.72,-0.04,-0.02,-0.69,112.75
0,6956,-0.91,-0.04,-0.01,-0.41,0.54,0.00,-0.01,-0.84,-0.72,-0.04,-0.02,-0.69,112.80
0,6966,-0.91,-0.04,-0.01,-0.41,0.54,0.00,-0.01,-0.84,-0.72,-0.04,-0.02,-0.69,112.77
0,6971,-0.91,-0.04,-0.01,-0.41,0.54,0.00,-0.01,-0.84,-0.72,-0.04,-0.02,-0.69,112.78
0,6976,-0.91,-0.04,-0.01,-0.41,0.54,0.00,-0.01,-0.84,-0.72,-0.04,-0.02,-0.69,112.81
0,6981,-0.91,-0.04,-0.01,-0.41,0.54,0.00,-0.01,-0.84,-0.72,-0.04,-0.02,-0.69,112.78
0,6991,-0.91,-0.04,-0.01,-0.41,0.54,0.00,-0.01,-0.84,-0.72,-0.04,-0.02,-0.69,112.74
0,7001,-0.91,-0.04,-0.01,-0.41,0.54,0.00,-0.01,-0.84,-0.72,-0.04,-0.02,-0.69,112.75
0,7006,-0.91,-0.04,-0.01,-0.41,0.54,0.00,-0.01,-0.84,-0.72,-0.04,-0.02,-0.69,112.71
0,7016,-0.91,-0.04,-0.01,-0.41,0.54,0.00,-0.01,-0.84,-0.72,-0.04,-0.02,-0.69,112.72
0,7021,-0.91,-0.04,-0.01,-0.41,0.54,0.00,-0.01,-0.84,-0.72,-0.04,-0.02,-0.69,112.69
0,7026,-0.91,-0.04,-0.01,-0.41,0.54,0.00,-0.01,-0.84,-0.72,-0.04,-0.02,-0.69,112.70
0,7031,-0.91,-0.04,-0.01,-0.41,0.54,0.00,-0.01,-0.84,-0.72,-0.04,-0.02,-0.69,112.67
0,7036,-0.91,-0.04,-0.01,-0.41,0.54,0.00,-0.01,-0.84,-0.72,-0.04,-0.02,-0.69,112.69
0,7041,-0.91,-0.04,-0.01,-0.41,0.54,0.00,-0.01,-0.84,-0.72,-0.04,-0.02,-0.69,112.68
0,7046,-0.91,-0.04,-0.01,-0.41,0.54,0.00,-0.01,-0.84,-0.72,-0.04,-0.02,-0.69,112.69
0,7061,-0.91,-0.04,-0.01,-0.41,0.54,0.00,-0.01,-0.84,-0.72,-0.04,-0.02,-0.69,112.64
0,7066,-0.91,-0.04,-0.01,-0.41,0.54,0.00,-0.01,-0.84,-0.72,-0.04,-0.02,-0.69,112.60
0,7071,-0.91,-0.04,-0.01,-0.41,0.54,0.00,-0.01,-0.84,-0.72,-0.04,-0.02,-0.69,112.54
0,7076,-0.91,-0.04,-0.01,-0.41,0.54,0.00,-0.01,-0.84,-0.72,-0.04,-0.02,-0.69,112.46
0,7086,-0.91,-0.04,-0.01,-0.41,0.54,0.00,-0.01,-0.84,-0.72,-0.04,-0.02,-0.69,112.38
0,7091,-0.91,-0.04,-0.01,-0.41,0.54,0.00,-0.01,-0.84,-0.72,-0.04,-0.02,-0.69,112.34
0,7096,-0.91,-0.04,-0.01,-0.41,0.54,0.00,-0.01,-0.84,-0.72,-0.04,-0.02,-0.69,112.32
0,7101,-0.91,-0.04,-0.01,-0.41,0.54,0.00,-0.01,-0.84,-0.72,-0.04,-0.02,-0.69,112.26
0,7111,-0.91,-0.04,-0.01,-0.41,0.54,0.00,-0.01,-0.84,-0.72,-0.04,-0.02,-0.69,112.15
0,7121,-0.91,-0.04,-0.01,-0.41,0.54,0.00,-0.01,-0.84,-0.72,-0.04,-0.02,-0.69,111.95
0,7126,-0.91,-0.04,-0.01,-0.41,0.54,0.00,-0.01,-0.84,-0.72,-0.04,-0.02,-0.69,111.85
0,7131,-0.91,-0.04,-0.01,-0.41,0.54,0.00,-0.01,-0.84,-0.72,-0.04,-0.02,-0.69,111.71
0,7151,-0.91,-0.04,-0.01,-0.41,0.54,0.00,-0.01,-0.84,-0.72,-0.04,-0.02,-0.69,111.19
0,7161,-0.91,-0.04,-0.01,-0.41,0.54,0.00,-0.01,-0.84,-0.72,-0.04,-0.02,-0.69,110.90
0,7166,-0.91,-0.04,-0.01,-0.41,0.54,0.00,-0.01,-0.84,-0.72,-0.04,-0.02,-0.69,110.75
0,7176,-0.91,-0.04,-0.01,-0.41,0.54,0.00,-0.01,-0.84,-0.72,-0.04,-0.02,-0.69,110.43
0,7181,-0.91,-0.04,-0.01,-0.41,0.54,0.00,-0.01,-0.84,-0.72,-0.04,-0.02,-0.69,110.21
0,7186,-0.91,-0.04,-0.01,-0.41,0.54,0.00,-0.01,-0.84,-0.72,-0.04,-0.02,-0.69,109.96
0,7191,-0.91,-0.04,-0.01,-0.41,0.54,0.00,-0.01,-0.84,-0.72,-0.04,-0.02,-0.69,109.71
0,7201,-0.91,-0.04,-0.01,-0.41,0.54,0.00,-0.01,-0.84,-0.72,-0.04,-0.03,-0.69,109.21
0,7206,-0.91,-0.04,-0.01,-0.41,0.54,0.00,-0.01,-0.84,-0.72,-0.04,-0.03,-0.69,108.93
0,7221,-0.91,-0.04,-0.01,-0.41,0.54,0.00,-0.01,-0.84,-0.72,-0.05,-0.03,-0.69,108.02
0,7231,-0.91,-0.04,-0.01,-0.41,0.54,0.00,-0.01,-0.84,-0.72,-0.05,-0.03,-0.69,107.37
0,7236,-0.91,-0.04,-0.01,-0.41,0.54,0.00,-0.01,-0.84,-0.71,-0.05,-0.03,-0.69,107.04
0,7241,-0.91,-0.04,-0.01,-0.41,0.54,0.00,-0.01,-0.84,-0.71,-0.05,-0.03,-0.70,106.72
0,7246,-0.91,-0.04,-0.01,-0.41,0.54,0.00,-0.01,-0.84,-0.71,-0.05,-0.03,-0.70,106.43
0,7256,-0.91,-0.04,-0.01,-0.41,0.54,0.00,-0.01,-0.84,-0.71,-0.05,-0.03,-0.70,105.87
0,7261,-0.91,-0.04,-0.01,-0.41,0.54,0.00,-0.01,-0.84,-0.71,-0.05,-0.04,-0.69,105.64
0,7266,-0.91,-0.04,-0.01,-0.41,0.54,0.00,-0.01,-0.84,-0.71,-0.05,-0.04,-0.70,105.40
0,7281,-0.91,-0.04,-0.01,-0.41,0.54,0.00,-0.01,-0.84,-0.71,-0.06,-0.04,-0.69,104.71
0,7286,-0.91,-0.04,-0.01,-0.41,0.54,0.00,-0.01,-0.84,-0.71,-0.06,-0.04,-0.69,104.45
0,7291,-0.91,-0.04,-0.01,-0.41,0.54,0.00,-0.01,-0.84,-0.71,-0.06,-0.05,-0.69,104.25
0,7296,-0.91,-0.04,-0.01,-0.41,0.54,0.00,-0.01,-0.84,-0.71,-0.06,-0.05,-0.69,104.04
0,7316,-0.91,-0.04,-0.01,-0.41,0.54,0.00,-0.01,-0.84,-0.71,-0.07,-0.05,-0.69,103.11
0,7321,-0.91,-0.04,-0.01,-0.41,0.54,0.00,-0.01,-0.84,-0.71,-0.07,-0.05,-0.69,102.81
0,7326,-0.91,-0.04,-0.01,-0.41,0.54,0.00,-0.01,-0.84,-0.71,-0.07,-0.05,-0.69,102.58
0,7331,-0.91,-0.04,-0.01,-0.41,0.54,0.00,-0.01,-0.84,-0.71,-0.07,-0.06,-0.69,102.35
0,7341,-0.91,-0.04,-0.01,-0.41,0.54,0.00,-0.01,-0.84,-0.71,-0.08,-0.06,-0.69,101.95
0,7346,-0.91,-0.04,-0.01,-0.41,0.54,0.00,-0.01,-0.84,-0.71,-0.08,-0.06,-0.69,101.79
0,7351,-0.91,-0.04,-0.01,-0.41,0.54,0.00,-0.01,-0.84,-0.71,-0.08,-0.06,-0.69,101.60
0,7356,-0.91,-0.04,-0.01,-0.41,0.54,0.00,-0.01,-0.84,-0.71,-0.08,-0.06,-0.69,101.45
0,7361,-0.91,-0.04,-0.01,-0.41,0.54,0.00,-0.01,-0.84,-0.71,-0.08,-0.06,-0.69,101.32
0,7376,-0.91,-0.04,-0.01,-0.41,0.54,0.00,-0.01,-0.84,-0.71,-0.09,-0.07,-0.69,100.98
0,7381,-0.91,-0.04,-0.01,-0.41,0.54,0.00,-0.01,-0.84,-0.71,-0.09,-0.07,-0.69,100.86
0,7386,-0.91,-0.04,-0.01,-0.41,0.54,0.00,-0.01,-0.84,-0.71,-0.09,-0.08,-0.69,100.80
0,7396,-0.91,-0.04,-0.01,-0.41,0.54,0.00,-0.01,-0.84,-0.71,-0.10,-0.08,-0.69,100.69
0,7401,-0.91,-0.04,-0.01,-0.41,0.54,0.00,-0.01,-0.84,-0.71,-0.10,-0.08,-0.69,100.65
0,7406,-0.91,-0.04,-0.01,-0.41,0.54,0.00,-0.01,-0.84,-0.71,-0.10,-0.09,-0.69,100.58
0,7411,-0.91,-0.04,-0.01,-0.41,0.54,0.00,-0.01,-0.84,-0.71,-0.10,-0.09,-0.69,100.59
0,7421,-0.91,-0.04,-0.01,-0.41,0.54,0.00,-0.01,-0.84,-0.71,-0.11,-0.09,-0.69,100.53
0,7431,-0.91,-0.04,-0.01,-0.41,0.54,0.00,-0.01,-0.84,-0.71,-0.12,-0.10,-0.69,100.45
0,7436,-0.91,-0.04,-0.01,-0.41,0.54,0.00,-0.01,-0.84,-0.71,-0.12,-0.10,-0.69,100.45
0,7441,-0.91,-0.04,-0.01,-0.41,0.54,0.00,-0.01,-0.84,-0.71,-0.12,-0.10,-0.69,100.45
0,7456,-0.91,-0.04,-0.01,-0.41,0.54,0.00,-0.01,-0.84,-0.71,-0.13,-0.11,-0.68,100.45
0,7461,-0.91,-0.04,-0.01,-0.41,0.54,0.00,-0.01,-0.84,-0.71,-0.13,-0.11,-0.68,100.49
0,7466,-0.91,-0.04,-0.01,-0.41,0.54,0.00,-0.01,-0.84,-0.71,-0.14,-0.12,-0.68,100.47
0,7471,-0.91,-0.04,-0.01,-0.41,0.54,0.00,-0.01,-0.84,-0.71,-0.14,-0.12,-0.68,100.47
0,7481,-0.91,-0.04,-0.01,-0.41,0.54,0.00,-0.01,-0.84,-0.71,-0.14,-0.13,-0.68,100.49
0,7496,-0.91,-0.04,-0.01,-0.41,0.54,0.00,-0.01,-0.84,-0.71,-0.15,-0.13,-0.68,100.47
0,7501,-0.91,-0.04,-0.01,-0.41,0.54,0.00,-0.01,-0.84,-0.71,-0.16,-0.14,-0.68,100.51
0,7506,-0.91,-0.04,-0.01,-0.41,0.54,0.00,-0.01,-0.84,-0.71,-0.16,-0.14,-0.67,100.51
0,7511,-0.91,-0.04,-0.01,-0.41,0.54,0.00,-0.01,-0.84,-0.70,-0.16,-0.14,-0.67,100.51
0,7516,-0.91,-0.04,-0.01,-0.41,0.54,0.00,-0.01,-0.84,-0.70,-0.17,-0.15,-0.67,100.49
0,7521,-0.91,-0.04,-0.01,-0.41,0.54,0.00,-0.01,-0.84,-0.70,-0.17,-0.15,-0.67,100.51
0,7526,-0.91,-0.04,-0.01,-0.41,0.54,0.00,-0.01,-0.84,-0.70,-0.17,-0.15,-0.67,100.51
0,7531,-0.91,-0.04,-0.01,-0.41,0.54,0.00,-0.01,-0.84,-0.70,-0.18,-0.16,-0.67,100.49
0,7541,-0.91,-0.04,-0.01,-0.41,0.54,0.00,-0.01,-0.84,-0.70,-0.19,-0.16,-0.67,100.51
0,7551,-0.91,-0.04,-0.01,-0.41,0.54,0.00,-0.01,-0.84,-0.70,-0.19,-0.17,-0.67,100.51
0,7556,-0.91,-0.04,-0.01,-0.41,0.54,0.00,-0.01,-0.84,-0.70,-0.20,-0.17,-0.66,100.51
0,7566,-0.91,-0.04,-0.01,-0.41,0.54,0.00,-0.01,-0.84,-0.70,-0.20,-0.18,-0.66,100.49
0,7576,-0.91,-0.04,-0.01,-0.41,0.54,0.00,-0.01,-0.84,-0.70,-0.21,-0.19,-0.66,100.51
0,7581,-0.91,-0.04,-0.01,-0.41,0.54,0.00,-0.01,-0.84,-0.70,-0.21,-0.19,-0.66,100.53
0,7586,-0.91,-0.04,-0.01,-0.41,0.54,0.00,-0.01,-0.84,-0.69,-0.22,-0.19,-0.66,100.53
0,7596,-0.91,-0.04,-0.01,-0.41,0.54,0.00,-0.01,-0.84,-0.69,-0.22,-0.20,-0.65,100.53
0,7611,-0.91,-0.04,-0.01,-0.41,0.54,0.00,-0.01,-0.84,-0.69,-0.23,-0.21,-0.65,100.53
0,7616,-0.91,-0.04,-0.01,-0.41,0.54,0.00,-0.01,-0.84,-0.69,-0.24,-0.21,-0.65,100.53
0,7621,-0.91,-0.04,-0.01,-0.41,0.54,0.00,-0.01,-0.84,-0.69,-0.24,-0.21,-0.65,100.52
0,7626,-0.91,-0.04,-0.01,-0.41,0.54,0.00,-0.01,-0.84,-0.69,-0.24,-0.22,-0.65,100.53
0,7636,-0.91,-0.04,-0.01,-0.41,0.54,0.00,-0.01,-0.84,-0.69,-0.25,-0.22,-0.64,100.53
0,7641,-0.91,-0.04,-0.01,-0.41,0.54,0.00,-0.01,-0.84,-0.68,-0.25,-0.23,-0.64,100.53
0,7646,-0.91,-0.04,-0.01,-0.41,0.54,0.00,-0.01,-0.84,-0.68,-0.26,-0.23,-0.64,100.53
0,7666,-0.91,-0.04,-0.01,-0.41,0.54,0.00,-0.01,-0.84,-0.68,-0.27,-0.24,-0.64,100.53
0,7676,-0.91,-0.04,-0.01,-0.41,0.54,0.00,-0.01,-0.84,-0.68,-0.27,-0.24,-0.64,100.53
0,7681,-0.91,-0.04,-0.01,-0.41,0.54,0.00,-0.01,-0.84,-0.68,-0.28,-0.25,-0.63,100.53
0,7686,-0.91,-0.04,-0.01,-0.41,0.54,0.00,-0.01,-0.84,-0.68,-0.28,-0.25,-0.63,100.53
0,7691,-0.91,-0.04,-0.01,-0.41,0.54,0.00,-0.01,-0.84,-0.68,-0.28,-0.25,-0.63,100.53
0,7701,-0.91,-0.04,-0.01,-0.41,0.54,0.00,-0.01,-0.84,-0.67,-0.28,-0.26,-0.63,100.55
0,7706,-0.91,-0.04,-0.01,-0.41,0.54,0.00,-0.01,-0.84,-0.67,-0.29,-0.26,-0.63,100.55
0,7711,-0.91,-0.04,-0.01,-0.41,0.54,0.00,-0.01,-0.84,-0.67,-0.29,-0.26,-0.63,100.53
0,7726,-0.91,-0.04,-0.01,-0.41,0.54,0.00,-0.01,-0.84,-0.67,-0.29,-0.27,-0.62,100.53
0,7731,-0.91,-0.04,-0.01,-0.41,0.54,0.00,-0.01,-0.84,-0.67,-0.30,-0.27,-0.62,100.53
0,7736,-0.91,-0.04,-0.01,-0.41,0.54,0.00,-0.01,-0.84,-0.67,-0.30,-0.27,-0.62,100.55
0,7741,-0.91,-0.04,-0.01,-0.41,0.54,0.00,-0.01,-0.84,-0.67,-0.30,-0.27,-0.62,100.55
0,7756,-0.91,-0.04,-0.01,-0.41,0.54,0.00,-0.01,-0.84,-0.67,-0.30,-0.27,-0.62,100.55
0,7761,-0.91,-0.04,-0.01,-0.41,0.54,0.00,-0.01,-0.84,-0.67,-0.31,-0.28,-0.62,100.53
0,7766,-0.91,-0.04,-0.01,-0.41,0.54,0.00,-0.01,-0.84,-0.67,-0.31,-0.28,-0.62,100.55
0,7771,-0.91,-0.04,-0.01,-0.41,0.54,0.00,-0.01,-0.84,-0.67,-0.31,-0.28,-0.62,100.55
0,7791,-0.91,-0.04,-0.01,-0.41,0.54,0.00,-0.01,-0.84,-0.67,-0.31,-0.28,-0.62,100.53
0,7796,-0.91,-0.04,-0.01,-0.41,0.54,0.00,-0.01,-0.84,-0.67,-0.31,-0.28,-0.62,100.53
0,7801,-0.91,-0.04,-0.01,-0.41,0.54,0.00,-0.01,-0.84,-0.67,-0.31,-0.28,-0.62,100.55
0,7806,-0.91,-0.04,-0.01,-0.41,0.54,0.00,-0.01,-0.84,-0.67,-0.31,-0.28,-0.62,100.53
0,7821,-0.91,-0.04,-0.01,-0.41,0.54,0.00,-0.01,-0.84,-0.67,-0.31,-0.28,-0.62,100.53
0,7826,-0.91,-0.04,-0.01,-0.41,0.54,0.00,-0.01,-0.84,-0.67,-0.31,-0.28,-0.62,100.55
0,7831,-0.91,-0.04,-0.01,-0.41,0.54,0.00,-0.01,-0.84,-0.67,-0.31,-0.28,-0.62,100.55
0,7836,-0.91,-0.04,-0.01,-0.41,0.54,0.00,-0.01,-0.84,-0.67,-0.31,-0.28,-0.62,100.55
0,7851,-0.91,-0.04,-0.01,-0.41,0.54,0.00,-0.01,-0.84,-0.67,-0.31,-0.28,-0.62,100.57
0,7856,-0.91,-0.04,-0.01,-0.41,0.54,0.00,-0.01,-0.84,-0.67,-0.31,-0.28,-0.62,100.53
0,7861,-0.91,-0.04,-0.01,-0.41,0.54,0.00,-0.01,-0.84,-0.67,-0.31,-0.28,-0.62,100.55
0,7871,-0.91,-0.04,-0.01,-0.41,0.54,0.00,-0.01,-0.84,-0.67,-0.31,-0.28,-0.62,100.55
0,7881,-0.91,-0.04,-0.01,-0.41,0.54,0.00,-0.01,-0.84,-0.67,-0.30,-0.27,-0.62,100.55
0,7886,-0.91,-0.04,-0.01,-0.41,0.54,0.00,-0.01,-0.84,-0.67,-0.30,-0.27,-0.62,100.53
0,7891,-0.91,-0.04,-0.01,-0.41,0.54,0.00,-0.01,-0.84,-0.67,-0.29,-0.27,-0.62,100.55
0,7901,-0.91,-0.04,-0.01,-0.41,0.54,0.00,-0.01,-0.84,-0.68,-0.28,-0.26,-0.63,100.55
0,7911,-0.91,-0.04,-0.01,-0.41,0.54,0.00,-0.01,-0.84,-0.68,-0.27,-0.25,-0.63,100.55
0,7916,-0.91,-0.04,-0.01,-0.41,0.54,0.00,-0.01,-0.84,-0.68,-0.26,-0.25,-0.63,100.53
0,7926,-0.91,-0.04,-0.01,-0.41,0.54,0.00,-0.01,-0.84,-0.69,-0.25,-0.23,-0.64,100.53
0,7936,-0.91,-0.04,-0.01,-0.41,0.54,0.00,-0.01,-0.84,-0.69,-0.23,-0.22,-0.65,100.67
0,7941,-0.91,-0.04,-0.01,-0.41,0.54,0.00,-0.01,-0.84,-0.70,-0.22,-0.21,-0.65,100.73
0,7946,-0.91,-0.04,-0.01,-0.41,0.54,0.00,-0.01,-0.84,-0.70,-0.21,-0.20,-0.65,100.83
0,7951,-0.91,-0.04,-0.01,-0.41,0.54,0.00,-0.01,-0.84,-0.70,-0.20,-0.19,-0.66,100.98
0,7956,-0.91,-0.04,-0.01,-0.41,0.54,0.00,-0.01,-0.84,-0.70,-0.19,-0.17,-0.66,101.26
0,7966,-0.91,-0.04,-0.01,-0.41,0.54,0.00,-0.01,-0.84,-0.70,-0.16,-0.15,-0.67,101.97
0,7971,-0.91,-0.04,-0.01,-0.41,0.54,0.00,-0.01,-0.84,-0.70,-0.15,-0.14,-0.68,102.38
0,7976,-0.91,-0.04,-0.01,-0.41,0.54,0.00,-0.01,-0.84,-0.70,-0.14,-0.13,-0.68,102.86
0,7981,-0.91,-0.04,-0.01,-0.41,0.54,0.00,-0.01,-0.84,-0.70,-0.13,-0.11,-0.69,103.31
0,7991,-0.91,-0.04,-0.01,-0.41,0.54,0.00,-0.01,-0.84,-0.70,-0.11,-0.10,-0.70,104.32
0,7996,-0.91,-0.04,-0.01,-0.41,0.54,0.00,-0.01,-0.84,-0.70,-0.10,-0.09,-0.70,104.75
0,8001,-0.91,-0.04,-0.01,-0.41,0.54,0.00,-0.01,-0.84,-0.70,-0.10,-0.08,-0.70,105.21
0,8006,-0.91,-0.04,-0.01,-0.41,0.54,0.00,-0.01,-0.84,-0.70,-0.09,-0.08,-0.71,105.66
0,8021,-0.91,-0.04,-0.01,-0.41,0.54,0.00,-0.01,-0.84,-0.69,-0.08,-0.06,-0.71,106.87
0,8026,-0.91,-0.04,-0.01,-0.41,0.54,0.00,-0.01,-0.84,-0.69,-0.07,-0.06,-0.71,107.22
0,8031,-0.91,-0.04,-0.01,-0.41,0.54,0.00,-0.01,-0.84,-0.69,-0.07,-0.05,-0.71,107.51
0,8041,-0.91,-0.04,-0.01,-0.41,0.54,0.00,-0.01,-0.84,-0.69,-0.06,-0.05,-0.72,108.01
0,8056,-0.91,-0.04,-0.01,-0.41,0.54,0.00,-0.01,-0.84,-0.69,-0.06,-0.04,-0.72,108.46
0,8061,-0.91,-0.04,-0.01,-0.41,0.54,0.00,-0.01,-0.84,-0.69,-0.05,-0.04,-0.72,108.57
0,8066,-0.91,-0.04,-0.01,-0.41,0.54,0.00,-0.01,-0.84,-0.69,-0.05,-0.04,-0.72,108.69
0,8071,-0.91,-0.04,-0.01,-0.41,0.54,0.00,-0.01,-0.84,-0.69,-0.05,-0.04,-0.72,108.80
0,8081,-0.91,-0.04,-0.01,-0.41,0.54,0.00,-0.01,-0.84,-0.69,-0.05,-0.03,-0.72,108.95
0,8086,-0.91,-0.04,-0.01,-0.41,0.54,0.00,-0.01,-0.84,-0.69,-0.05,-0.03,-0.72,109.05
0,8091,-0.91,-0.04,-0.01,-0.41,0.54,0.00,-0.01,-0.84,-0.70,-0.05,-0.03,-0.71,109.15
0,8106,-0.91,-0.04,-0.01,-0.41,0.54,0.00,-0.01,-0.84,-0.70,-0.05,-0.03,-0.71,109.41
0,8116,-0.91,-0.04,-0.01,-0.41,0.54,0.00,-0.01,-0.84,-0.70,-0.04,-0.03,-0.71,109.58
0,8121,-0.91,-0.04,-0.01,-0.41,0.54,0.00,-0.01,-0.84,-0.70,-0.04,-0.03,-0.71,109.68
0,8126,-0.91,-0.04,-0.01,-0.41,0.54,0.00,-0.01,-0.84,-0.70,-0.04,-0.03,-0.71,109.72
0,8136,-0.91,-0.04,-0.01,-0.41,0.54,0.00,-0.01,-0.84,-0.70,-0.04,-0.03,-0.71,109.81
0,8141,-0.91,-0.04,-0.01,-0.41,0.54,0.00,-0.01,-0.84,-0.70,-0.04,-0.03,-0.71,109.81
0,8146,-0.91,-0.04,-0.01,-0.41,0.54,0.00,-0.01,-0.84,-0.70,-0.04,-0.03,-0.71,109.80
0,8151,-0.91,-0.04,-0.01,-0.41,0.54,0.00,-0.01,-0.84,-0.70,-0.04,-0.03,-0.71,109.76
0,8156,-0.91,-0.04,-0.01,-0.41,0.54,0.00,-0.01,-0.84,-0.70,-0.04,-0.02,-0.71,109.70
0,8176,-0.91,-0.04,-0.01,-0.41,0.54,0.00,-0.01,-0.84,-0.70,-0.04,-0.02,-0.71,109.53
0,8181,-0.91,-0.04,-0.01,-0.41,0.54,0.00,-0.01,-0.84,-0.70,-0.04,-0.02,-0.71,109.45
0,8186,-0.91,-0.04,-0.01,-0.41,0.54,0.00,-0.01,-0.84,-0.70,-0.04,-0.02,-0.71,109.37
0,8196,-0.91,-0.04,-0.01,-0.41,0.54,0.00,-0.01,-0.84,-0.70,-0.04,-0.02,-0.71,109.19
0,8201,-0.91,-0.04,-0.01,-0.41,0.54,0.00,-0.01,-0.84,-0.70,-0.04,-0.02,-0.71,109.07
0,8206,-0.91,-0.04,-0.01,-0.41,0.54,0.00,-0.01,-0.84,-0.70,-0.04,-0.02,-0.71,108.93
0,8211,-0.91,-0.04,-0.01,-0.41,0.54,0.00,-0.01,-0.84,-0.70,-0.04,-0.02,-0.71,108.79
0,8221,-0.91,-0.04,-0.01,-0.41,0.54,0.00,-0.01,-0.84,-0.70,-0.04,-0.02,-0.71,108.46
0,8231,-0.91,-0.04,-0.01,-0.41,0.54,0.00,-0.01,-0.84,-0.70,-0.04,-0.02,-0.71,107.98
0,8236,-0.91,-0.04,-0.01,-0.41,0.54,0.00,-0.01,-0.84,-0.70,-0.04,-0.02,-0.71,107.75
0,8241,-0.91,-0.04,-0.01,-0.41,0.54,0.00,-0.01,-0.84,-0.70,-0.04,-0.02,-0.71,107.49
0,8251,-0.91,-0.04,-0.01,-0.41,0.54,0.00,-0.01,-0.84,-0.70,-0.04,-0.02,-0.71,106.88
0,8261,-0.91,-0.04,-0.01,-0.41,0.54,0.00,-0.01,-0.84,-0.70,-0.04,-0.03,-0.71,106.21
0,8266,-0.91,-0.04,-0.01,-0.41,0.54,0.00,-0.01,-0.84,-0.70,-0.04,-0.03,-0.71,105.81
0,8271,-0.91,-0.04,-0.01,-0.41,0.54,0.00,-0.01,-0.84,-0.70,-0.04,-0.03,-0.71,105.40
0,8276,-0.91,-0.04,-0.01,-0.41,0.54,0.00,-0.01,-0.84,-0.70,-0.04,-0.03,-0.71,105.00
0,8286,-0.91,-0.04,-0.01,-0.41,0.54,0.00,-0.01,-0.84,-0.70,-0.05,-0.03,-0.71,104.14
0,8291,-0.91,-0.04,-0.01,-0.41,0.54,0.00,-0.01,-0.84,-0.70,-0.05,-0.03,-0.71,103.75
0,8296,-0.91,-0.04,-0.01,-0.41,0.54,0.00,-0.01,-0.84,-0.70,-0.05,-0.03,-0.71,103.35
0,8301,-0.91,-0.04,-0.01,-0.41,0.54,0.00,-0.01,-0.84,-0.70,-0.05,-0.04,-0.71,102.94
0,8311,-0.91,-0.04,-0.01,-0.41,0.54,0.00,-0.01,-0.84,-0.70,-0.06,-0.04,-0.71,102.21
0,8316,-0.91,-0.04,-0.01,-0.41,0.54,0.00,-0.01,-0.84,-0.70,-0.06,-0.04,-0.71,101.87
0,8321,-0.91,-0.04,-0.01,-0.41,0.54,0.00,-0.01,-0.84,-0.70,-0.06,-0.04,-0.71,101.56
0,8326,-0.91,-0.04,-0.01,-0.41,0.54,0.00,-0.01,-0.84,-0.70,-0.06,-0.05,-0.71,101.30
0,8341,-0.91,-0.04,-0.01,-0.41,0.54,0.00,-0.01,-0.84,-0.70,-0.07,-0.05,-0.71,100.77
0,8346,-0.91,-0.04,-0.01,-0.41,0.54,0.00,-0.01,-0.84,-0.70,-0.08,-0.06,-0.71,100.65
0,8351,-0.91,-0.04,-0.01,-0.41,0.54,0.00,-0.01,-0.84,-0.70,-0.08,-0.06,-0.71,100.57
0,8356,-0.91,-0.04,-0.01,-0.41,0.54,0.00,-0.01,-0.84,-0.70,-0.08,-0.06,-0.71,100.53
0,8366,-0.91,-0.04,-0.01,-0.41,0.54,0.00,-0.01,-0.84,-0.70,-0.09,-0.07,-0.70,100.43
0,8381,-0.91,-0.04,-0.01,-0.41,0.54,0.00,-0.01,-0.84,-0.70,-0.11,-0.08,-0.70,100.45
0,8386,-0.91,-0.04,-0.01,-0.41,0.54,0.00,-0.01,-0.84,-0.70,-0.11,-0.09,-0.70,100.47
0,8391,-0.91,-0.04,-0.01,-0.41,0.54,0.00,-0.01,-0.84,-0.70,-0.12,-0.09,-0.70,100.43
0,8396,-0.91,-0.04,-0.01,-0.41,0.54,0.00,-0.01,-0.84,-0.70,-0.12,-0.10,-0.69,100.51
0,8406,-0.91,-0.04,-0.01,-0.41,0.54,0.00,-0.01,-0.84,-0.70,-0.13,-0.11,-0.69,100.47
0,8411,-0.91,-0.04,-0.01,-0.41,0.54,0.00,-0.01,-0.84,-0.70,-0.14,-0.11,-0.69,100.45
0,8421,-0.91,-0.04,-0.01,-0.41,0.54,0.00,-0.01,-0.84,-0.70,-0.15,-0.12,-0.69,100.47
0,8431,-0.91,-0.04,-0.01,-0.41,0.54,0.00,-0.01,-0.84,-0.70,-0.16,-0.13,-0.68,100.47
0,8436,-0.91,-0.04,-0.01,-0.41,0.54,0.00,-0.01,-0.84,-0.70,-0.17,-0.14,-0.68,100.47
0,8441,-0.91,-0.04,-0.01,-0.41,0.54,0.00,-0.01,-0.84,-0.70,-0.17,-0.14,-0.68,100.47
0,8451,-0.91,-0.04,-0.01,-0.41,0.54,0.00,-0.01,-0.84,-0.70,-0.18,-0.15,-0.67,100.51
0,8461,-0.91,-0.04,-0.01,-0.41,0.54,0.00,-0.01,-0.84,-0.70,-0.19,-0.16,-0.67,100.47
0,8466,-0.91,-0.04,-0.01,-0.41,0.54,0.00,-0.01,-0.84,-0.70,-0.19,-0.16,-0.67,100.51
0,8471,-0.91,-0.04,-0.01,-0.41,0.54,0.00,-0.01,-0.84,-0.70,-0.20,-0.17,-0.67,100.49
0,8481,-0.91,-0.04,-0.01,-0.41,0.54,0.00,-0.01,-0.84,-0.70,-0.20,-0.17,-0.66,100.51
0,8501,-0.91,-0.04,-0.01,-0.41,0.54,0.00,-0.01,-0.84,-0.69,-0.22,-0.19,-0.66,100.51
0,8506,-0.91,-0.04,-0.01,-0.41,0.54,0.00,-0.01,-0.84,-0.69,-0.22,-0.19,-0.66,100.49
0,8511,-0.91,-0.04,-0.01,-0.41,0.54,0.00,-0.01,-0.84,-0.69,-0.22,-0.19,-0.66,100.51
0,8516,-0.91,-0.04,-0.01,-0.41,0.54,0.00,-0.01,-0.84,-0.69,-0.22,-0.19,-0.66,100.49
0,8521,-0.91,-0.04,-0.01,-0.41,0.54,0.00,-0.01,-0.84,-0.69,-0.23,-0.20,-0.65,100.55
0,8526,-0.91,-0.04,-0.01,-0.41,0.54,0.00,-0.01,-0.84,-0.69,-0.23,-0.20,-0.65,100.51
0,8531,-0.91,-0.04,-0.01,-0.41,0.54,0.00,-0.01,-0.84,-0.69,-0.23,-0.20,-0.65,100.51
0,8536,-0.91,-0.04,-0.01,-0.41,0.54,0.00,-0.01,-0.84,-0.69,-0.23,-0.20,-0.65,100.53
0,8546,-0.91,-0.04,-0.01,-0.41,0.54,0.00,-0.01,-0.84,-0.69,-0.24,-0.21,-0.65,100.53
0,8561,-0.91,-0.04,-0.01,-0.41,0.54,0.00,-0.01,-0.84,-0.69,-0.24,-0.21,-0.65,100.53
0,8566,-0.91,-0.04,-0.01,-0.41,0.54,0.00,-0.01,-0.84,-0.69,-0.24,-0.21,-0.65,100.53
0,8581,-0.91,-0.04,-0.01,-0.41,0.54,0.00,-0.01,-0.84,-0.69,-0.24,-0.21,-0.65,100.53
0,8586,-0.91,-0.04,-0.01,-0.41,0.54,0.00,-0.01,-0.84,-0.69,-0.25,-0.22,-0.65,100.51
0,8591,-0.91,-0.04,-0.01,-0.41,0.54,0.00,-0.01,-0.84,-0.69,-0.25,-0.22,-0.65,100.55
0,8596,-0.91,-0.04,-0.01,-0.41,0.54,0.00,-0.01,-0.84,-0.69,-0.25,-0.22,-0.65,100.53
0,8601,-0.91,-0.04,-0.01,-0.41,0.54,0.00,-0.01,-0.84,-0.69,-0.25,-0.22,-0.65,100.53
0,8606,-0.91,-0.04,-0.01,-0.41,0.54,0.00,-0.01,-0.84,-0.69,-0.25,-0.22,-0.65,100.53
0,8611,-0.91,-0.04,-0.01,-0.41,0.54,0.00,-0.01,-0.84,-0.69,-0.25,-0.22,-0.65,100.53
0,8616,-0.91,-0.04,-0.01,-0.41,0.54,0.00,-0.01,-0.84,-0.69,-0.25,-0.22,-0.65,100.53
0,8621,-0.91,-0.04,-0.01,-0.41,0.54,0.00,-0.01,-0.84,-0.69,-0.25,-0.22,-0.65,100.53
0,8636,-0.91,-0.04,-0.01,-0.41,0.54,0.00,-0.01,-0.84,-0.69,-0.24,-0.21,-0.65,100.53
0,8641,-0.91,-0.04,-0.01,-0.41,0.54,0.00,-0.01,-0.84,-0.69,-0.23,-0.21,-0.65,100.53
0,8646,-0.91,-0.04,-0.01,-0.41,0.54,0.00,-0.01,-0.84,-0.69,-0.23,-0.21,-0.65,100.53
0,8661,-0.91,-0.04,-0.01,-0.41,0.54,0.00,-0.01,-0.84,-0.70,-0.21,-0.19,-0.66,100.95
0,8666,-0.91,-0.04,-0.01,-0.41,0.54,0.00,-0.01,-0.84,-0.70,-0.20,-0.19,-0.66,101.50
0,8671,-0.91,-0.04,-0.01,-0.41,0.54,0.00,-0.01,-0.84,-0.70,-0.19,-0.18,-0.66,102.58
0,8676,-0.91,-0.04,-0.01,-0.41,0.54,0.00,-0.01,-0.84,-0.71,-0.18,-0.17,-0.66,103.69
0,8686,-0.91,-0.04,-0.01,-0.41,0.54,0.00,-0.01,-0.84,-0.71,-0.15,-0.14,-0.67,105.01
0,8696,-0.91,-0.04,-0.01,-0.41,0.54,0.00,-0.01,-0.84,-0.71,-0.12,-0.11,-0.68,106.03
0,8706,-0.91,-0.04,-0.01,-0.41,0.54,0.00,-0.01,-0.84,-0.71,-0.09,-0.08,-0.69,107.26
0,8711,-0.91,-0.04,-0.01,-0.41,0.54,0.00,-0.01,-0.84,-0.71,-0.08,-0.07,-0.69,107.75
0,8716,-0.91,-0.04,-0.01,-0.41,0.54,0.00,-0.01,-0.84,-0.71,-0.07,-0.06,-0.70,108.20
0,8726,-0.91,-0.04,-0.01,-0.41,0.54,0.00,-0.01,-0.84,-0.70,-0.06,-0.05,-0.70,108.91
0,8731,-0.91,-0.04,-0.01,-0.41,0.54,0.00,-0.01,-0.84,-0.70,-0.06,-0.04,-0.71,109.27
0,8736,-0.91,-0.04,-0.01,-0.41,0.54,0.00,-0.01,-0.84,-0.70,-0.06,-0.04,-0.71,109.57
0,8751,-0.91,-0.04,-0.01,-0.41,0.54,0.00,-0.01,-0.84,-0.70,-0.05,-0.03,-0.71,109.86
0,8756,-0.91,-0.04,-0.01,-0.41,0.54,0.00,-0.01,-0.84,-0.70,-0.04,-0.02,-0.71,109.92
0,8761,-0.91,-0.04,-0.01,-0.41,0.54,0.00,-0.01,-0.84,-0.70,-0.04,-0.02,-0.71,110.00
0,8766,-0.91,-0.04,-0.01,-0.41,0.54,0.00,-0.01,-0.84,-0.70,-0.04,-0.02,-0.71,110.06
0,8771,-0.91,-0.04,-0.01,-0.41,0.54,0.00,-0.01,-0.84,-0.70,-0.04,-0.01,-0.71,110.08
0,8786,-0.91,-0.04,-0.01,-0.41,0.54,0.00,-0.01,-0.84,-0.70,-0.03,-0.01,-0.71,110.16
0,8791,-0.91,-0.04,-0.01,-0.41,0.54,0.00,-0.01,-0.84,-0.70,-0.03,-0.01,-0.71,110.16
0,8796,-0.91,-0.04,-0.01,-0.41,0.54,0.00,-0.01,-0.84,-0.70,-0.03,-0.01,-0.71,110.12
0,8816,-0.91,-0.04,-0.01,-0.41,0.54,0.00,-0.01,-0.84,-0.70,-0.03,-0.01,-0.71,109.93
0,8821,-0.91,-0.04,-0.01,-0.41,0.54,0.00,-0.01,-0.84,-0.70,-0.03,-0.01,-0.71,109.84
0,8826,-0.91,-0.04,-0.01,-0.41,0.54,0.00,-0.01,-0.84,-0.70,-0.03,-0.01,-0.71,109.83
0,8831,-0.91,-0.04,-0.01,-0.41,0.54,0.00,-0.01,-0.84,-0.70,-0.03,-0.01,-0.71,109.78
0,8841,-0.91,-0.04,-0.01,-0.41,0.54,0.00,-0.01,-0.84,-0.70,-0.03,-0.01,-0.71,109.70
0,8846,-0.91,-0.04,-0.01,-0.41,0.54,0.00,-0.01,-0.84,-0.70,-0.03,-0.01,-0.71,109.68
0,8851,-0.91,-0.04,-0.01,-0.41,0.54,0.00,-0.01,-0.84,-0.70,-0.03,-0.01,-0.71,109.62
0,8856,-0.91,-0.04,-0.01,-0.41,0.54,0.00,-0.01,-0.84,-0.70,-0.03,-0.01,-0.71,109.61
0,8876,-0.91,-0.04,-0.01,-0.41,0.54,0.00,-0.01,-0.84,-0.70,-0.03,-0.01,-0.71,109.45
0,8881,-0.91,-0.04,-0.01,-0.41,0.54,0.00,-0.01,-0.84,-0.70,-0.03,-0.01,-0.71,109.36
0,8886,-0.91,-0.04,-0.01,-0.41,0.54,0.00,-0.01,-0.84,-0.70,-0.03,-0.01,-0.71,109.33
0,8891,-0.91,-0.04,-0.01,-0.41,0.54,0.00,-0.01,-0.84,-0.70,-0.03,-0.01,-0.71,109.25
0,8901,-0.91,-0.04,-0.01,-0.41,0.54,0.00,-0.01,-0.84,-0.70,-0.03,-0.01,-0.71,109.02
0,8906,-0.91,-0.04,-0.01,-0.41,0.54,0.00,-0.01,-0.84,-0.70,-0.03,-0.01,-0.71,108.91
0,8911,-0.91,-0.04,-0.01,-0.41,0.54,0.00,-0.01,-0.84,-0.70,-0.03,-0.01,-0.71,108.82
0,8916,-0.91,-0.04,-0.01,-0.41,0.54,0.00,-0.01,-0.84,-0.70,-0.03,-0.01,-0.71,108.68
0,8926,-0.91,-0.04,-0.01,-0.41,0.54,0.00,-0.01,-0.84,-0.70,-0.03,-0.01,-0.71,108.43
0,8931,-0.91,-0.04,-0.01,-0.41,0.54,0.00,-0.01,-0.84,-0.70,-0.03,-0.01,-0.71,108.29
0,8936,-0.91,-0.04,-0.01,-0.41,0.54,0.00,-0.01,-0.84,-0.70,-0.03,-0.01,-0.71,108.11
0,8941,-0.91,-0.04,-0.01,-0.41,0.54,0.00,-0.01,-0.84,-0.70,-0.03,-0.01,-0.71,107.89
0,8951,-0.91,-0.04,-0.01,-0.41,0.54,0.00,-0.01,-0.84,-0.70,-0.03,-0.01,-0.71,107.40
0,8961,-0.91,-0.04,-0.01,-0.41,0.54,0.00,-0.01,-0.84,-0.70,-0.03,-0.01,-0.71,106.77
0,8966,-0.91,-0.04,-0.01,-0.41,0.54,0.00,-0.01,-0.84,-0.70,-0.03,-0.01,-0.71,106.41
0,8971,-0.91,-0.04,-0.01,-0.41,0.54,0.00,-0.01,-0.84,-0.70,-0.03,-0.01,-0.71,106.07
0,8976,-0.91,-0.04,-0.01,-0.41,0.54,0.00,-0.01,-0.84,-0.70,-0.03,-0.02,-0.71,105.68
0,8986,-0.91,-0.04,-0.01,-0.41,0.54,0.00,-0.01,-0.84,-0.70,-0.03,-0.02,-0.71,104.78
0,8991,-0.91,-0.04,-0.01,-0.41,0.54,0.00,-0.01,-0.84,-0.70,-0.04,-0.02,-0.71,104.26
0,8996,-0.91,-0.04,-0.01,-0.41,0.54,0.00,-0.01,-0.84,-0.70,-0.04,-0.02,-0.71,103.73
0,9001,-0.91,-0.04,-0.01,-0.41,0.54,0.00,-0.01,-0.84,-0.70,-0.04,-0.02,-0.71,103.22
0,9016,-0.91,-0.04,-0.01,-0.41,0.54,0.00,-0.01,-0.84,-0.70,-0.04,-0.03,-0.71,101.87
0,9021,-0.91,-0.04,-0.01,-0.41,0.54,0.00,-0.01,-0.84,-0.70,-0.05,-0.03,-0.71,101.54
0,9031,-0.91,-0.04,-0.01,-0.41,0.54,0.00,-0.01,-0.84,-0.70,-0.05,-0.04,-0.71,101.07
0,9036,-0.91,-0.04,-0.01,-0.41,0.54,0.00,-0.01,-0.84,-0.70,-0.06,-0.04,-0.71,100.87
0,9046,-0.91,-0.04,-0.01,-0.41,0.54,0.00,-0.01,-0.84,-0.70,-0.07,-0.05,-0.71,100.61
0,9051,-0.91,-0.04,-0.01,-0.41,0.54,0.00,-0.01,-0.84,-0.70,-0.07,-0.05,-0.71,100.56
0,9061,-0.91,-0.04,-0.01,-0.41,0.54,0.00,-0.01,-0.84,-0.70,-0.08,-0.06,-0.71,100.40
0,9066,-0.91,-0.04,-0.01,-0.41,0.54,0.00,-0.01,-0.84,-0.70,-0.09,-0.06,-0.71,100.42
0,9081,-0.91,-0.04,-0.01,-0.41,0.54,0.00,-0.01,-0.84,-0.70,-0.10,-0.07,-0.70,100.43
0,9086,-0.91,-0.04,-0.01,-0.41,0.54,0.00,-0.01,-0.84,-0.70,-0.11,-0.08,-0.70,100.43
0,9096,-0.91,-0.04,-0.01,-0.41,0.54,0.00,-0.01,-0.84,-0.70,-0.12,-0.09,-0.70,100.43
0,9101,-0.91,-0.04,-0.01,-0.41,0.54,0.00,-0.01,-0.84,-0.70,-0.12,-0.09,-0.69,100.45
0,9106,-0.91,-0.04,-0.01,-0.41,0.54,0.00,-0.01,-0.84,-0.70,-0.13,-0.10,-0.69,100.46
0,9111,-0.91,-0.04,-0.01,-0.41,0.54,0.00,-0.01,-0.84,-0.70,-0.14,-0.10,-0.69,100.45
0,9116,-0.91,-0.04,-0.01,-0.41,0.54,0.00,-0.01,-0.84,-0.70,-0.14,-0.11,-0.69,100.47
0,9121,-0.91,-0.04,-0.01,-0.41,0.54,0.00,-0.01,-0.84,-0.70,-0.15,-0.12,-0.69,100.45
0,9141,-0.91,-0.04,-0.01,-0.41,0.54,0.00,-0.01,-0.84,-0.70,-0.19,-0.14,-0.68,100.48
0,9146,-0.91,-0.04,-0.01,-0.41,0.54,0.00,-0.01,-0.84,-0.70,-0.19,-0.15,-0.67,100.47
0,9151,-0.91,-0.04,-0.01,-0.41,0.54,0.00,-0.01,-0.84,-0.70,-0.20,-0.15,-0.67,100.49
0,9156,-0.91,-0.04,-0.01,-0.41,0.54,0.00,-0.01,-0.84,-0.70,-0.21,-0.16,-0.67,100.49
0,9166,-0.91,-0.04,-0.01,-0.41,0.54,0.00,-0.01,-0.84,-0.69,-0.22,-0.17,-0.66,100.49
0,9171,-0.91,-0.04,-0.01,-0.41,0.54,0.00,-0.01,-0.84,-0.69,-0.23,-0.17,-0.66,100.49
0,9191,-0.91,-0.04,-0.01,-0.41,0.54,0.00,-0.01,-0.84,-0.69,-0.25,-0.19,-0.65,100.48
0,9196,-0.91,-0.04,-0.01,-0.41,0.54,0.00,-0.01,-0.84,-0.69,-0.25,-0.20,-0.65,100.52
0,9201,-0.91,-0.04,-0.01,-0.41,0.54,0.00,-0.01,-0.84,-0.69,-0.26,-0.20,-0.64,100.45
0,9206,-0.91,-0.04,-0.01,-0.41,0.54,0.00,-0.01,-0.84,-0.69,-0.26,-0.21,-0.64,100.49
0,9216,-0.91,-0.04,-0.01,-0.41,0.54,0.00,-0.01,-0.84,-0.69,-0.27,-0.22,-0.64,100.49
0,9221,-0.91,-0.04,-0.01,-0.41,0.54,0.00,-0.01,-0.84,-0.69,-0.27,-0.22,-0.64,100.51
0,9226,-0.91,-0.04,-0.01,-0.41,0.54,0.00,-0.01,-0.84,-0.68,-0.28,-0.22,-0.63,100.54
0,9231,-0.91,-0.04,-0.01,-0.41,0.54,0.00,-0.01,-0.84,-0.68,-0.28,-0.23,-0.63,100.51
0,9251,-0.91,-0.04,-0.01,-0.41,0.54,0.00,-0.01,-0.84,-0.68,-0.29,-0.24,-0.63,100.50
0,9256,-0.91,-0.04,-0.01,-0.41,0.54,0.00,-0.01,-0.84,-0.68,-0.29,-0.24,-0.63,100.51
0,9261,-0.91,-0.04,-0.01,-0.41,0.54,0.00,-0.01,-0.84,-0.68,-0.29,-0.24,-0.62,100.52
0,9266,-0.91,-0.04,-0.01,-0.41,0.54,0.00,-0.01,-0.84,-0.68,-0.29,-0.25,-0.62,100.54
0,9271,-0.91,-0.04,-0.01,-0.41,0.54,0.00,-0.01,-0.84,-0.68,-0.29,-0.25,-0.62,100.51
0,9276,-0.91,-0.04,-0.01,-0.41,0.54,0.00,-0.01,-0.84,-0.68,-0.29,-0.25,-0.62,100.49
0,9281,-0.91,-0.04,-0.01,-0.41,0.54,0.00,-0.01,-0.84,-0.68,-0.29,-0.25,-0.62,100.51
0,9286,-0.91,-0.04,-0.01,-0.41,0.54,0.00,-0.01,-0.84,-0.68,-0.29,-0.25,-0.62,100.49
0,9291,-0.91,-0.04,-0.01,-0.41,0.54,0.00,-0.01,-0.84,-0.68,-0.29,-0.25,-0.62,100.51
0,9296,-0.91,-0.04,-0.01,-0.41,0.54,0.00,-0.01,-0.84,-0.68,-0.29,-0.25,-0.62,100.49
0,9311,-0.91,-0.04,-0.01,-0.41,0.54,0.00,-0.01,-0.84,-0.69,-0.28,-0.24,-0.62,100.53
0,9316,-0.91,-0.04,-0.01,-0.41,0.54,0.00,-0.01,-0.84,-0.69,-0.27,-0.24,-0.63,100.54
0,9321,-0.91,-0.04,-0.01,-0.41,0.54,0.00,-0.01,-0.84,-0.69,-0.26,-0.23,-0.63,100.51
0,9326,-0.91,-0.04,-0.01,-0.41,0.54,0.00,-0.01,-0.84,-0.70,-0.26,-0.23,-0.63,100.51
0,9341,-0.91,-0.04,-0.01,-0.41,0.54,0.00,-0.01,-0.84,-0.71,-0.22,-0.20,-0.64,102.15
0,9346,-0.91,-0.04,-0.01,-0.41,0.54,0.00,-0.01,-0.84,-0.71,-0.21,-0.19,-0.64,104.03
0,9356,-0.91,-0.04,-0.01,-0.41,0.54,0.00,-0.01,-0.84,-0.72,-0.18,-0.16,-0.65,106.14
0,9361,-0.91,-0.04,-0.01,-0.41,0.54,0.00,-0.01,-0.84,-0.72,-0.16,-0.14,-0.66,106.77
0,9366,-0.91,-0.04,-0.01,-0.41,0.54,0.00,-0.01,-0.84,-0.72,-0.14,-0.13,-0.66,107.36
0,9371,-0.91,-0.04,-0.01,-0.41,0.54,0.00,-0.01,-0.84,-0.72,-0.12,-0.11,-0.67,108.15
0,9386,-0.91,-0.04,-0.01,-0.41,0.54,0.00,-0.01,-0.84,-0.72,-0.07,-0.05,-0.69,109.43
0,9396,-0.91,-0.04,-0.01,-0.41,0.54,0.00,-0.01,-0.84,-0.71,-0.06,-0.04,-0.70,109.42
0,9401,-0.91,-0.04,-0.01,-0.41,0.54,0.00,-0.01,-0.84,-0.71,-0.06,-0.03,-0.70,109.35
0,9406,-0.91,-0.04,-0.01,-0.41,0.54,0.00,-0.01,-0.84,-0.71,-0.05,-0.03,-0.70,109.33
0,9411,-0.91,-0.04,-0.01,-0.41,0.54,0.00,-0.01,-0.84,-0.70,-0.05,-0.02,-0.71,109.33
0,9421,-0.91,-0.04,-0.01,-0.41,0.54,0.00,-0.01,-0.84,-0.70,-0.04,-0.01,-0.71,109.39
0,9426,-0.91,-0.04,-0.01,-0.41,0.54,0.00,-0.01,-0.84,-0.70,-0.04,-0.01,-0.71,109.43
0,9431,-0.91,-0.04,-0.01,-0.41,0.54,0.00,-0.01,-0.84,-0.70,-0.04,-0.01,-0.71,109.45
0,9441,-0.91,-0.04,-0.01,-0.41,0.54,0.00,-0.01,-0.84,-0.70,-0.03,-0.01,-0.71,109.71
0,9456,-0.91,-0.04,-0.01,-0.41,0.54,0.00,-0.01,-0.84,-0.70,-0.03,-0.00,-0.72,109.93
0,9461,-0.91,-0.04,-0.01,-0.41,0.54,0.00,-0.01,-0.84,-0.70,-0.03,-0.00,-0.72,109.95
0,9466,-0.91,-0.04,-0.01,-0.41,0.54,0.00,-0.01,-0.84,-0.70,-0.03,-0.00,-0.72,109.89
0,9491,-0.91,-0.04,-0.01,-0.41,0.54,0.00,-0.01,-0.84,-0.70,-0.03,-0.00,-0.71,109.81
0,9496,-0.91,-0.04,-0.01,-0.41,0.54,0.00,-0.01,-0.84,-0.70,-0.03,-0.00,-0.71,109.79
0,9501,-0.91,-0.04,-0.01,-0.41,0.54,0.00,-0.01,-0.84,-0.70,-0.03,-0.00,-0.71,109.79
0,9506,-0.91,-0.04,-0.01,-0.41,0.54,0.00,-0.01,-0.84,-0.70,-0.03,-0.00,-0.71,109.81
0,9526,-0.91,-0.04,-0.01,-0.41,0.54,0.00,-0.01,-0.84,-0.71,-0.03,-0.00,-0.71,109.79
0,9531,-0.91,-0.04,-0.01,-0.41,0.54,0.00,-0.01,-0.84,-0.71,-0.03,-0.00,-0.70,109.79
0,9536,-0.91,-0.04,-0.01,-0.41,0.54,0.00,-0.01,-0.84,-0.71,-0.03,-0.00,-0.70,109.75
0,9541,-0.91,-0.04,-0.01,-0.41,0.54,0.00,-0.01,-0.84,-0.71,-0.03,-0.00,-0.70,109.75
0,9551,-0.91,-0.04,-0.01,-0.41,0.54,0.00,-0.01,-0.84,-0.71,-0.03,-0.00,-0.70,109.71
0,9556,-0.91,-0.04,-0.01,-0.41,0.54,0.00,-0.01,-0.84,-0.71,-0.03,-0.00,-0.70,109.65
0,9571,-0.91,-0.04,-0.01,-0.41,0.54,0.00,-0.01,-0.84,-0.71,-0.02,-0.00,-0.70,109.61
0,9576,-0.91,-0.04,-0.01,-0.41,0.54,0.00,-0.01,-0.84,-0.71,-0.02,-0.00,-0.70,109.55
0,9581,-0.91,-0.04,-0.01,-0.41,0.54,0.00,-0.01,-0.84,-0.71,-0.02,-0.00,-0.70,109.51
0,9586,-0.91,-0.04,-0.01,-0.41,0.54,0.00,-0.01,-0.84,-0.71,-0.02,-0.00,-0.70,109.47
0,9591,-0.91,-0.04,-0.01,-0.41,0.54,0.00,-0.01,-0.84,-0.71,-0.02,-0.00,-0.70,109.43
0,9596,-0.91,-0.04,-0.01,-0.41,0.54,0.00,-0.01,-0.84,-0.71,-0.02,-0.00,-0.70,109.39
0,9606,-0.91,-0.04,-0.01,-0.41,0.54,0.00,-0.01,-0.84,-0.71,-0.02,-0.00,-0.70,109.29
0,9611,-0.91,-0.04,-0.01,-0.41,0.54,0.00,-0.01,-0.84,-0.71,-0.02,-0.00,-0.70,109.23
0,9616,-0.91,-0.04,-0.01,-0.41,0.54,0.00,-0.01,-0.84,-0.71,-0.02,-0.00,-0.70,109.18
0,9626,-0.91,-0.04,-0.01,-0.41,0.54,0.00,-0.01,-0.84,-0.71,-0.03,-0.00,-0.70,108.97
0,9636,-0.91,-0.04,-0.01,-0.41,0.54,0.00,-0.01,-0.84,-0.71,-0.03,-0.00,-0.70,108.68
0,9641,-0.91,-0.04,-0.01,-0.41,0.54,0.00,-0.01,-0.84,-0.71,-0.03,-0.01,-0.70,108.46
0,9651,-0.91,-0.04,-0.01,-0.41,0.54,0.00,-0.01,-0.84,-0.71,-0.03,-0.01,-0.70,107.91
0,9661,-0.91,-0.04,-0.01,-0.41,0.54,0.00,-0.01,-0.84,-0.71,-0.03,-0.01,-0.70,107.24
0,9666,-0.91,-0.04,-0.01,-0.41,0.54,0.00,-0.01,-0.84,-0.71,-0.03,-0.01,-0.70,106.85
0,9671,-0.91,-0.04,-0.01,-0.41,0.54,0.00,-0.01,-0.84,-0.71,-0.03,-0.01,-0.70,106.45
0,9676,-0.91,-0.04,-0.01,-0.41,0.54,0.00,-0.01,-0.84,-0.71,-0.03,-0.01,-0.71,106.04
0,9681,-0.91,-0.04,-0.01,-0.41,0.54,0.00,-0.01,-0.84,-0.71,-0.03,-0.01,-0.71,105.64
0,9701,-0.91,-0.04,-0.01,-0.41,0.54,0.00,-0.01,-0.84,-0.70,-0.03,-0.01,-0.71,104.14
0,9706,-0.91,-0.04,-0.01,-0.41,0.54,0.00,-0.01,-0.84,-0.70,-0.04,-0.02,-0.71,103.81
0,9711,-0.91,-0.04,-0.01,-0.41,0.54,0.00,-0.01,-0.84,-0.70,-0.04,-0.02,-0.71,103.48
0,9716,-0.91,-0.04,-0.01,-0.41,0.54,0.00,-0.01,-0.84,-0.70,-0.04,-0.02,-0.71,103.16
0,9726,-0.91,-0.04,-0.01,-0.41,0.54,0.00,-0.01,-0.84,-0.70,-0.04,-0.02,-0.71,102.47
0,9731,-0.91,-0.04,-0.01,-0.41,0.54,0.00,-0.01,-0.84,-0.70,-0.05,-0.03,-0.71,102.14
0,9736,-0.91,-0.04,-0.01,-0.41,0.54,0.00,-0.01,-0.84,-0.70,-0.05,-0.03,-0.71,101.84
0,9751,-0.91,-0.04,-0.01,-0.41,0.54,0.00,-0.01,-0.84,-0.70,-0.06,-0.03,-0.71,101.09
0,9756,-0.91,-0.04,-0.01,-0.41,0.54,0.00,-0.01,-0.84,-0.70,-0.06,-0.04,-0.71,100.89
0,9761,-0.91,-0.04,-0.01,-0.41,0.54,0.00,-0.01,-0.84,-0.70,-0.06,-0.04,-0.71,100.80
0,9766,-0.91,-0.04,-0.01,-0.41,0.54,0.00,-0.01,-0.84,-0.70,-0.07,-0.04,-0.71,100.69
0,9776,-0.91,-0.04,-0.01,-0.41,0.54,0.00,-0.01,-0.84,-0.70,-0.07,-0.05,-0.71,100.56
0,9781,-0.91,-0.04,-0.01,-0.41,0.54,0.00,-0.01,-0.84,-0.70,-0.08,-0.05,-0.71,100.52
0,9786,-0.91,-0.04,-0.01,-0.41,0.54,0.00,-0.01,-0.84,-0.70,-0.08,-0.05,-0.71,100.47
0,9791,-0.91,-0.04,-0.01,-0.41,0.54,0.00,-0.01,-0.84,-0.70,-0.09,-0.06,-0.71,100.42
0,9801,-0.91,-0.04,-0.01,-0.41,0.54,0.00,-0.01,-0.84,-0.70,-0.09,-0.06,-0.71,100.42
0,9806,-0.91,-0.04,-0.01,-0.41,0.54,0.00,-0.01,-0.84,-0.70,-0.10,-0.06,-0.71,100.46
0,9811,-0.91,-0.04,-0.01,-0.41,0.54,0.00,-0.01,-0.84,-0.70,-0.10,-0.07,-0.71,100.42
0,9821,-0.91,-0.04,-0.01,-0.41,0.54,0.00,-0.01,-0.84,-0.69,-0.11,-0.07,-0.70,100.42
0,9831,-0.91,-0.04,-0.01,-0.41,0.54,0.00,-0.01,-0.84,-0.69,-0.12,-0.08,-0.70,100.44
0,9836,-0.91,-0.04,-0.01,-0.41,0.54,0.00,-0.01,-0.84,-0.69,-0.13,-0.08,-0.70,100.44
0,9841,-0.91,-0.04,-0.01,-0.41,0.54,0.00,-0.01,-0.84,-0.69,-0.13,-0.09,-0.70,100.46
0,9846,-0.91,-0.04,-0.01,-0.41,0.54,0.00,-0.01,-0.84,-0.69,-0.14,-0.09,-0.70,100.48
0,9851,-0.91,-0.04,-0.01,-0.41,0.54,0.00,-0.01,-0.84,-0.69,-0.14,-0.09,-0.70,100.48
0,9866,-0.91,-0.04,-0.01,-0.41,0.54,0.00,-0.01,-0.84,-0.70,-0.16,-0.11,-0.69,100.48
0,9871,-0.91,-0.04,-0.01,-0.41,0.54,0.00,-0.01,-0.84,-0.70,-0.17,-0.11,-0.69,100.48
0,9876,-0.91,-0.04,-0.01,-0.41,0.54,0.00,-0.01,-0.84,-0.70,-0.17,-0.12,-0.68,100.47
0,9881,-0.91,-0.04,-0.01,-0.41,0.54,0.00,-0.01,-0.84,-0.70,-0.18,-0.12,-0.68,100.50
0,9886,-0.91,-0.04,-0.01,-0.41,0.54,0.00,-0.01,-0.84,-0.70,-0.19,-0.13,-0.68,100.49
0,9906,-0.91,-0.04,-0.01,-0.41,0.54,0.00,-0.01,-0.84,-0.70,-0.21,-0.15,-0.67,100.48
0,9911,-0.91,-0.04,-0.01,-0.41,0.54,0.00,-0.01,-0.84,-0.70,-0.22,-0.15,-0.66,100.50
0,9916,-0.91,-0.04,-0.01,-0.41,0.54,0.00,-0.01,-0.84,-0.70,-0.22,-0.16,-0.66,100.52
0,9921,-0.91,-0.04,-0.01,-0.41,0.54,0.00,-0.01,-0.84,-0.70,-0.23,-0.16,-0.66,100.50
0,9931,-0.91,-0.04,-0.01,-0.41,0.54,0.00,-0.01,-0.84,-0.69,-0.25,-0.17,-0.65,100.49
0,9936,-0.91,-0.04,-0.01,-0.41,0.54,0.00,-0.01,-0.84,-0.69,-0.26,-0.17,-0.65,100.48
0,9946,-0.91,-0.04,-0.01,-0.41,0.54,0.00,-0.01,-0.84,-0.69,-0.28,-0.17,-0.64,100.51
0,9961,-0.91,-0.04,-0.01,-0.41,0.54,0.00,-0.01,-0.84,-0.68,-0.30,-0.18,-0.64,100.50
0,9966,-0.91,-0.04,-0.01,-0.41,0.54,0.00,-0.01,-0.84,-0.68,-0.31,-0.18,-0.63,100.52
0,9971,-0.91,-0.04,-0.01,-0.41,0.54,0.00,-0.01,-0.84,-0.68,-0.32,-0.18,-0.63,100.50
0,9981,-0.91,-0.04,-0.01,-0.41,0.54,0.00,-0.01,-0.84,-0.68,-0.34,-0.18,-0.62,100.54
0,9986,-0.91,-0.04,-0.01,-0.41,0.54,0.00,-0.01,-0.84,-0.68,-0.35,-0.18,-0.62,100.52
0,9996,-0.91,-0.04,-0.01,-0.41,0.54,0.00,-0.01,-0.84,-0.68,-0.36,-0.18,-0.62,100.54
0,10001,-0.91,-0.04,-0.01,-0.41,0.54,0.00,-0.01,-0.84,-0.68,-0.36,-0.19,-0.61,100.54
0,10006,-0.91,-0.04,-0.01,-0.41,0.54,0.00,-0.01,-0.84,-0.68,-0.37,-0.19,-0.61,100.50
0,10011,-0.91,-0.04,-0.01,-0.41,0.54,0.00,-0.01,-0.84,-0.68,-0.37,-0.19,-0.61,100.52
0,10026,-0.91,-0.04,-0.01,-0.41,0.54,0.01,-0.01,-0.84,-0.67,-0.37,-0.21,-0.60,100.52
0,10031,-0.91,-0.04,-0.01,-0.41,0.54,0.02,-0.00,-0.84,-0.67,-0.37,-0.22,-0.60,100.52
0,10036,-0.91,-0.04,-0.01,-0.41,0.54,0.02,-0.00,-0.84,-0.67,-0.38,-0.23,-0.59,100.52
0,10046,-0.91,-0.04,-0.01,-0.41,0.54,0.03,-0.00,-0.84,-0.66,-0.38,-0.25,-0.59,100.54
0,10061,-0.91,-0.04,-0.01,-0.41,0.54,0.02,-0.00,-0.84,-0.65,-0.40,-0.26,-0.59,100.54
0,10066,-0.91,-0.04,-0.01,-0.41,0.54,0.02,-0.00,-0.84,-0.65,-0.41,-0.27,-0.58,100.52
0,10071,-0.91,-0.04,-0.01,-0.41,0.54,0.02,-0.00,-0.84,-0.64,-0.41,-0.27,-0.58,100.52
0,10076,-0.91,-0.04,-0.01,-0.41,0.54,0.02,-0.00,-0.84,-0.64,-0.42,-0.28,-0.58,100.54
0,10081,-0.91,-0.04,-0.01,-0.41,0.54,0.02,-0.00,-0.84,-0.63,-0.42,-0.28,-0.58,100.52
0,10086,-0.91,-0.04,-0.01,-0.41,0.54,0.02,-0.00,-0.84,-0.63,-0.43,-0.28,-0.58,100.54
0,10091,-0.91,-0.04,-0.01,-0.41,0.54,0.02,-0.00,-0.84,-0.63,-0.43,-0.28,-0.58,100.54
0,10096,-0.91,-0.04,-0.01,-0.41,0.54,0.02,-0.00,-0.84,-0.63,-0.43,-0.28,-0.58,100.50
0,10116,-0.91,-0.04,-0.01,-0.41,0.54,0.02,-0.00,-0.84,-0.63,-0.43,-0.28,-0.58,100.54
0,10121,-0.91,-0.04,-0.01,-0.41,0.54,0.02,-0.00,-0.84,-0.63,-0.43,-0.28,-0.58,100.52
0,10126,-0.91,-0.04,-0.01,-0.41,0.54,0.02,-0.00,-0.84,-0.63,-0.43,-0.28,-0.58,100.52
0,10136,-0.91,-0.04,-0.01,-0.41,0.54,0.02,-0.00,-0.84,-0.64,-0.42,-0.28,-0.58,100.56
0,10141,-0.91,-0.04,-0.01,-0.41,0.54,0.02,-0.00,-0.84,-0.64,-0.42,-0.28,-0.57,100.54
0,10146,-0.91,-0.04,-0.01,-0.41,0.54,0.02,-0.00,-0.84,-0.65,-0.42,-0.28,-0.57,100.56
0,10151,-0.91,-0.04,-0.01,-0.41,0.54,0.02,-0.00,-0.84,-0.65,-0.41,-0.28,-0.57,100.54
0,10156,-0.91,-0.04,-0.01,-0.41,0.54,0.02,-0.00,-0.84,-0.65,-0.41,-0.28,-0.57,100.54
0,10171,-0.91,-0.04,-0.01,-0.41,0.54,0.02,-0.00,-0.84,-0.66,-0.40,-0.28,-0.57,100.54
0,10176,-0.91,-0.04,-0.01,-0.41,0.54,0.02,-0.00,-0.84,-0.66,-0.39,-0.28,-0.57,100.54
0,10181,-0.91,-0.04,-0.01,-0.41,0.54,0.02,-0.00,-0.84,-0.66,-0.39,-0.28,-0.57,100.56
0,10191,-0.91,-0.04,-0.01,-0.41,0.54,0.02,-0.00,-0.84,-0.67,-0.38,-0.28,-0.58,100.56
0,10201,-0.91,-0.04,-0.01,-0.41,0.54,0.02,-0.00,-0.84,-0.67,-0.37,-0.28,-0.58,100.52
0,10206,-0.91,-0.04,-0.01,-0.41,0.54,0.02,-0.00,-0.84,-0.68,-0.36,-0.28,-0.58,100.54
0,10211,-0.91,-0.04,-0.01,-0.41,0.54,0.02,-0.00,-0.84,-0.68,-0.35,-0.28,-0.58,100.54
0,10216,-0.91,-0.04,-0.01,-0.41,0.54,0.02,-0.00,-0.84,-0.69,-0.34,-0.27,-0.58,100.52
0,10226,-0.91,-0.04,-0.01,-0.41,0.54,0.02,-0.00,-0.84,-0.70,-0.32,-0.27,-0.58,100.54
0,10231,-0.91,-0.04,-0.01,-0.41,0.54,0.02,-0.00,-0.84,-0.70,-0.31,-0.26,-0.59,100.54
0,10236,-0.91,-0.04,-0.01,-0.41,0.54,0.02,-0.00,-0.84,-0.70,-0.31,-0.25,-0.59,100.54
0,10241,-0.91,-0.04,-0.01,-0.41,0.54,0.02,-0.00,-0.84,-0.71,-0.30,-0.25,-0.59,100.54
0,10251,-0.91,-0.04,-0.01,-0.41,0.54,0.02,-0.00,-0.84,-0.71,-0.28,-0.23,-0.60,100.54
0,10261,-0.91,-0.04,-0.01,-0.41,0.54,0.02,-0.00,-0.84,-0.71,-0.27,-0.22,-0.60,100.51
0,10266,-0.91,-0.04,-0.01,-0.41,0.54,0.02,-0.00,-0.84,-0.72,-0.26,-0.22,-0.61,100.56
0,10271,-0.91,-0.04,-0.01,-0.41,0.54,0.02,-0.00,-0.84,-0.72,-0.26,-0.21,-0.61,100.54
0,10286,-0.91,-0.04,-0.01,-0.41,0.54,0.02,-0.00,-0.84,-0.73,-0.23,-0.19,-0.62,100.56
0,10291,-0.91,-0.04,-0.01,-0.41,0.54,0.02,-0.00,-0.84,-0.73,-0.23,-0.18,-0.62,100.54
0,10296,-0.91,-0.04,-0.01,-0.41,0.54,0.02,-0.00,-0.84,-0.73,-0.22,-0.18,-0.62,100.54
0,10301,-0.91,-0.04,-0.01,-0.41,0.54,0.02,-0.00,-0.84,-0.73,-0.21,-0.17,-0.62,100.54
0,10316,-0.91,-0.04,-0.01,-0.41,0.54,0.02,-0.00,-0.84,-0.74,-0.19,-0.15,-0.63,100.56
0,10321,-0.91,-0.04,-0.01,-0.41,0.54,0.02,-0.00,-0.84,-0.74,-0.18,-0.14,-0.63,100.56
0,10326,-0.91,-0.04,-0.01,-0.41,0.54,0.02,-0.00,-0.84,-0.74,-0.17,-0.13,-0.63,100.58
0,10331,-0.91,-0.04,-0.01,-0.41,0.54,0.02,-0.00,-0.84,-0.74,-0.16,-0.13,-0.64,100.54
0,10346,-0.91,-0.04,-0.01,-0.41,0.54,0.02,-0.00,-0.84,-0.75,-0.13,-0.10,-0.64,100.60
0,10351,-0.91,-0.04,-0.01,-0.41,0.54,0.02,-0.00,-0.84,-0.75,-0.12,-0.09,-0.64,100.79
0,10356,-0.91,-0.04,-0.01,-0.41,0.54,0.02,-0.00,-0.84,-0.75,-0.11,-0.08,-0.65,101.09
0,10366,-0.91,-0.04,-0.01,-0.41,0.54,0.02,-0.00,-0.84,-0.75,-0.09,-0.06,-0.65,101.44
0,10376,-0.91,-0.04,-0.01,-0.41,0.54,0.03,-0.00,-0.84,-0.75,-0.07,-0.04,-0.65,101.74
0,10381,-0.91,-0.04,-0.01,-0.41,0.54,0.03,-0.00,-0.84,-0.75,-0.06,-0.03,-0.65,102.04
0,10386,-0.91,-0.04,-0.01,-0.41,0.54,0.03,-0.00,-0.84,-0.75,-0.05,-0.02,-0.66,102.33
0,10391,-0.91,-0.04,-0.01,-0.41,0.54,0.03,-0.00,-0.84,-0.75,-0.04,-0.01,-0.66,102.67
0,10411,-0.91,-0.04,-0.01,-0.41,0.54,0.03,-0.00,-0.84,-0.75,-0.04,0.04,-0.66,103.54
0,10416,-0.91,-0.04,-0.01,-0.41,0.54,0.03,-0.00,-0.84,-0.74,-0.05,0.03,-0.67,103.52
0,10421,-0.91,-0.04,-0.01,-0.41,0.54,0.03,-0.00,-0.84,-0.74,-0.05,0.03,-0.67,103.46
0,10426,-0.91,-0.04,-0.01,-0.41,0.54,0.03,-0.00,-0.84,-0.74,-0.05,0.02,-0.67,103.38
0,10446,-0.91,-0.04,-0.01,-0.41,0.54,0.03,-0.00,-0.84,-0.74,-0.06,0.03,-0.67,103.10
0,10451,-0.91,-0.04,-0.01,-0.41,0.54,0.03,-0.00,-0.84,-0.74,-0.06,0.04,-0.67,103.04
0,10456,-0.91,-0.04,-0.01,-0.41,0.55,0.03,-0.00,-0.84,-0.74,-0.06,0.04,-0.67,102.99
0,10461,-0.91,-0.04,-0.01,-0.41,0.55,0.03,-0.00,-0.84,-0.74,-0.07,0.05,-0.67,102.92
0,10471,-0.91,-0.04,-0.01,-0.41,0.55,0.03,-0.00,-0.84,-0.74,-0.07,0.05,-0.67,102.94
0,10476,-0.91,-0.04,-0.01,-0.41,0.55,0.03,-0.00,-0.84,-0.73,-0.07,0.05,-0.67,103.00
0,10486,-0.91,-0.04,-0.01,-0.41,0.55,0.03,-0.00,-0.84,-0.73,-0.07,0.05,-0.68,103.12
0,10501,-0.91,-0.04,-0.01,-0.41,0.55,0.03,-0.00,-0.84,-0.73,-0.06,0.04,-0.68,103.29
0,10506,-0.91,-0.04,-0.01,-0.41,0.55,0.03,-0.00,-0.84,-0.72,-0.06,0.04,-0.69,103.40
0,10511,-0.91,-0.04,-0.01,-0.41,0.55,0.03,-0.00,-0.84,-0.72,-0.05,0.04,-0.69,103.44
0,10516,-0.91,-0.04,-0.01,-0.41,0.55,0.03,-0.00,-0.84,-0.72,-0.05,0.04,-0.69,103.10
0,10521,-0.91,-0.04,-0.01,-0.41,0.55,0.03,-0.00,-0.84,-0.72,-0.05,0.03,-0.69,103.36
0,10531,-0.91,-0.04,-0.01,-0.41,0.55,0.03,-0.00,-0.84,-0.71,-0.04,0.03,-0.70,104.13
0,10536,-0.91,-0.04,-0.01,-0.41,0.55,0.03,-0.00,-0.84,-0.71,-0.04,0.03,-0.70,104.40
0,10541,-0.91,-0.04,-0.01,-0.41,0.55,0.03,-0.00,-0.84,-0.70,-0.03,0.02,-0.71,104.68
0,10556,-0.91,-0.04,-0.01,-0.41,0.55,0.03,-0.00,-0.84,-0.70,-0.01,0.01,-0.71,105.39
0,10561,-0.91,-0.04,-0.01,-0.41,0.55,0.03,-0.00,-0.84,-0.70,-0.01,0.01,-0.71,105.67
0,10566,-0.91,-0.04,-0.01,-0.41,0.55,0.03,-0.00,-0.84,-0.70,-0.01,0.01,-0.71,105.90
0,10571,-0.91,-0.04,-0.01,-0.41,0.55,0.03,-0.00,-0.84,-0.70,-0.01,0.01,-0.71,106.16
0,10576,-0.91,-0.04,-0.01,-0.41,0.55,0.03,-0.00,-0.84,-0.70,-0.01,0.01,-0.71,106.38
0,10586,-0.91,-0.04,-0.01,-0.41,0.55,0.03,-0.00,-0.84,-0.70,-0.01,0.01,-0.71,106.81
0,10591,-0.91,-0.04,-0.01,-0.41,0.55,0.03,-0.00,-0.84,-0.70,-0.01,0.01,-0.71,107.04
0,10596,-0.91,-0.04,-0.01,-0.41,0.55,0.03,-0.00,-0.84,-0.70,-0.01,0.01,-0.71,107.30
0,10606,-0.91,-0.04,-0.01,-0.41,0.55,0.03,-0.00,-0.84,-0.70,-0.01,0.01,-0.71,107.87
0,10621,-0.91,-0.04,-0.01,-0.41,0.55,0.03,-0.00,-0.84,-0.70,-0.01,0.00,-0.71,108.72
0,10626,-0.91,-0.04,-0.01,-0.41,0.55,0.03,-0.00,-0.84,-0.70,-0.01,0.00,-0.71,109.00
0,10631,-0.91,-0.04,-0.01,-0.41,0.55,0.03,-0.00,-0.84,-0.70,-0.01,0.00,-0.71,109.29
0,10636,-0.91,-0.04,-0.01,-0.41,0.55,0.03,-0.00,-0.84,-0.70,-0.01,0.00,-0.71,109.61
0,10641,-0.91,-0.04,-0.01,-0.41,0.55,0.03,-0.00,-0.84,-0.70,-0.01,0.00,-0.71,109.91
0,10646,-0.91,-0.04,-0.01,-0.41,0.55,0.03,-0.00,-0.84,-0.70,-0.01,0.00,-0.71,110.21
0,10651,-0.91,-0.04,-0.01,-0.41,0.55,0.03,-0.00,-0.84,-0.70,-0.01,0.00,-0.71,110.46
0,10656,-0.91,-0.04,-0.01,-0.41,0.55,0.03,-0.00,-0.84,-0.70,-0.01,0.00,-0.71,110.74
0,10676,-0.91,-0.04,-0.01,-0.41,0.55,0.03,-0.00,-0.84,-0.70,-0.01,0.00,-0.71,111.84
0,10681,-0.91,-0.04,-0.01,-0.41,0.55,0.03,-0.00,-0.84,-0.70,-0.01,0.00,-0.71,112.10
0,10686,-0.91,-0.04,-0.01,-0.41,0.55,0.03,-0.00,-0.84,-0.70,-0.01,0.00,-0.71,112.32
0,10691,-0.91,-0.04,-0.01,-0.41,0.55,0.03,-0.00,-0.84,-0.70,-0.01,0.00,-0.71,112.59
0,10706,-0.91,-0.04,-0.01,-0.41,0.55,0.03,-0.00,-0.84,-0.70,-0.01,0.00,-0.72,113.58
0,10711,-0.91,-0.04,-0.01,-0.41,0.55,0.03,-0.00,-0.84,-0.70,-0.01,0.00,-0.72,113.91
0,10716,-0.91,-0.04,-0.01,-0.41,0.55,0.03,-0.00,-0.84,-0.70,-0.01,0.00,-0.72,114.25
0,10721,-0.91,-0.04,-0.01,-0.41,0.55,0.03,-0.00,-0.84,-0.70,-0.01,0.00,-0.72,114.52
0,10741,-0.91,-0.04,-0.01,-0.41,0.55,0.03,-0.00,-0.84,-0.70,-0.01,0.00,-0.72,115.62
0,10746,-0.91,-0.04,-0.01,-0.41,0.55,0.03,-0.00,-0.84,-0.70,-0.01,0.00,-0.72,115.78
0,10751,-0.91,-0.04,-0.01,-0.41,0.55,0.03,-0.00,-0.84,-0.70,-0.01,0.01,-0.72,115.90
0,10761,-0.91,-0.04,-0.01,-0.41,0.55,0.03,-0.00,-0.84,-0.69,-0.01,0.01,-0.72,115.90
0,10771,-0.91,-0.04,-0.01,-0.41,0.55,0.03,-0.00,-0.84,-0.69,-0.01,0.01,-0.72,115.75
0,10776,-0.91,-0.04,-0.01,-0.41,0.55,0.03,-0.00,-0.84,-0.69,-0.01,0.01,-0.72,115.61
0,10781,-0.91,-0.04,-0.01,-0.41,0.55,0.03,-0.00,-0.84,-0.69,-0.01,0.01,-0.72,115.47
0,10796,-0.91,-0.04,-0.01,-0.41,0.55,0.03,-0.00,-0.84,-0.69,-0.01,0.00,-0.72,114.80
0,10801,-0.91,-0.04,-0.01,-0.41,0.55,0.03,-0.00,-0.84,-0.69,-0.01,0.00,-0.72,114.52
0,10806,-0.91,-0.04,-0.01,-0.41,0.55,0.03,-0.00,-0.84,-0.69,-0.01,0.00,-0.72,114.21
0,10811,-0.91,-0.04,-0.01,-0.41,0.55,0.03,-0.00,-0.84,-0.69,-0.01,0.00,-0.72,113.86
0,10816,-0.91,-0.04,-0.01,-0.41,0.55,0.03,-0.00,-0.84,-0.69,-0.01,0.01,-0.72,113.48
0,10831,-0.91,-0.04,-0.01,-0.41,0.55,0.03,-0.00,-0.84,-0.69,-0.01,0.01,-0.72,112.36
0,10836,-0.91,-0.04,-0.01,-0.41,0.55,0.03,-0.00,-0.84,-0.69,-0.01,0.01,-0.72,111.96
0,10841,-0.91,-0.04,-0.01,-0.41,0.55,0.03,-0.00,-0.84,-0.69,-0.01,0.01,-0.72,111.61
0,10856,-0.91,-0.04,-0.01,-0.41,0.55,0.03,-0.00,-0.84,-0.69,-0.01,0.01,-0.72,110.56
0,10861,-0.91,-0.04,-0.01,-0.41,0.55,0.03,-0.00,-0.84,-0.69,-0.01,0.01,-0.72,110.21
0,10866,-0.91,-0.04,-0.01,-0.41,0.55,0.03,-0.00,-0.84,-0.69,-0.01,0.01,-0.72,109.89
0,10871,-0.91,-0.04,-0.01,-0.41,0.55,0.03,-0.00,-0.84,-0.69,-0.01,0.01,-0.72,109.55
0,10876,-0.91,-0.04,-0.01,-0.41,0.55,0.03,-0.00,-0.84,-0.69,-0.01,0.01,-0.72,109.27
0,10896,-0.91,-0.04,-0.01,-0.41,0.55,0.03,-0.00,-0.84,-0.69,-0.01,0.01,-0.72,108.33
0,10901,-0.91,-0.04,-0.01,-0.41,0.55,0.03,-0.00,-0.84,-0.69,-0.01,0.01,-0.72,108.23
0,10906,-0.91,-0.04,-0.01,-0.41,0.55,0.03,-0.00,-0.84,-0.69,-0.01,0.01,-0.72,108.15
0,10911,-0.91,-0.04,-0.01,-0.41,0.55,0.03,-0.00,-0.84,-0.69,-0.01,0.01,-0.73,108.05
0,10921,-0.91,-0.04,-0.01,-0.41,0.55,0.03,-0.00,-0.84,-0.69,-0.01,0.01,-0.73,107.94
0,10926,-0.91,-0.04,-0.01,-0.41,0.55,0.03,-0.00,-0.84,-0.69,-0.01,0.01,-0.73,107.92
0,10931,-0.91,-0.04,-0.01,-0.41,0.55,0.03,-0.00,-0.84,-0.69,-0.01,0.01,-0.73,107.91
0,10936,-0.91,-0.04,-0.01,-0.41,0.55,0.03,-0.00,-0.84,-0.69,-0.01,0.01,-0.73,107.88
0,10946,-0.91,-0.04,-0.01,-0.41,0.55,0.03,-0.00,-0.84,-0.69,-0.01,0.01,-0.73,107.74
0,10951,-0.91,-0.04,-0.01,-0.41,0.55,0.03,-0.00,-0.84,-0.68,-0.01,0.01,-0.73,107.68
0,10956,-0.91,-0.04,-0.01,-0.41,0.55,0.03,-0.00,-0.84,-0.68,-0.01,0.01,-0.73,107.56
0,10966,-0.91,-0.04,-0.01,-0.41,0.55,0.03,-0.00,-0.84,-0.67,-0.01,0.01,-0.74,107.34
0,10976,-0.91,-0.04,-0.01,-0.41,0.55,0.03,-0.00,-0.84,-0.66,-0.02,0.01,-0.75,107.07
0,10981,-0.91,-0.04,-0.01,-0.41,0.55,0.03,-0.00,-0.84,-0.65,-0.02,0.01,-0.76,106.97
0,10986,-0.91,-0.04,-0.01,-0.41,0.55,0.03,-0.00,-0.84,-0.65,-0.02,0.01,-0.76,106.87
0,10991,-0.91,-0.04,-0.01,-0.41,0.55,0.03,-0.00,-0.84,-0.64,-0.02,0.01,-0.76,106.79
0,11001,-0.91,-0.04,-0.01,-0.41,0.55,0.03,-0.00,-0.84,-0.64,-0.02,0.01,-0.77,106.65
0,11006,-0.91,-0.04,-0.01,-0.41,0.55,0.03,-0.00,-0.84,-0.64,-0.03,0.02,-0.77,106.56
0,11011,-0.91,-0.04,-0.01,-0.41,0.55,0.03,-0.00,-0.84,-0.64,-0.03,0.02,-0.77,106.61
0,11016,-0.91,-0.04,-0.01,-0.41,0.55,0.03,-0.00,-0.84,-0.64,-0.04,0.02,-0.76,106.46
0,11036,-0.91,-0.04,-0.01,-0.41,0.55,0.03,-0.00,-0.84,-0.65,-0.06,0.04,-0.76,106.36
0,11041,-0.91,-0.04,-0.01,-0.41,0.55,0.03,-0.00,-0.84,-0.65,-0.07,0.04,-0.76,106.36
0,11046,-0.91,-0.04,-0.01,-0.41,0.55,0.03,-0.00,-0.84,-0.65,-0.08,0.05,-0.76,106.36
0,11051,-0.91,-0.04,-0.01,-0.41,0.55,0.03,-0.00,-0.84,-0.65,-0.09,0.05,-0.76,106.38
0,11061,-0.91,-0.04,-0.01,-0.41,0.55,0.03,-0.00,-0.84,-0.64,-0.10,0.06,-0.76,106.40
0,11066,-0.91,-0.04,-0.01,-0.41,0.55,0.03,-0.00,-0.84,-0.64,-0.11,0.06,-0.76,106.36
0,11071,-0.91,-0.04,-0.01,-0.41,0.55,0.03,-0.00,-0.84,-0.63,-0.11,0.06,-0.76,106.34
0,11076,-0.91,-0.04,-0.01,-0.41,0.55,0.03,-0.00,-0.84,-0.63,-0.11,0.06,-0.77,106.32
0,11096,-0.91,-0.04,-0.01,-0.41,0.55,0.03,-0.00,-0.84,-0.60,-0.11,0.05,-0.79,106.16
0,11101,-0.91,-0.04,-0.01,-0.41,0.55,0.03,-0.00,-0.84,-0.60,-0.10,0.05,-0.79,106.08
0,11106,-0.91,-0.04,-0.01,-0.41,0.55,0.03,-0.00,-0.84,-0.59,-0.10,0.05,-0.80,106.00
0,11111,-0.91,-0.04,-0.01,-0.41,0.55,0.03,-0.00,-0.84,-0.59,-0.10,0.04,-0.80,105.94
0,11116,-0.91,-0.04,-0.01,-0.41,0.55,0.03,-0.00,-0.84,-0.58,-0.10,0.04,-0.81,105.97
0,11121,-0.91,-0.04,-0.01,-0.41,0.55,0.03,-0.00,-0.84,-0.58,-0.10,0.04,-0.81,105.94
0,11126,-0.91,-0.04,-0.01,-0.41,0.55,0.03,-0.00,-0.84,-0.57,-0.10,0.04,-0.81,105.99
0,11131,-0.91,-0.04,-0.01,-0.41,0.55,0.03,-0.00,-0.84,-0.57,-0.10,0.04,-0.81,105.94
0,11141,-0.91,-0.04,-0.01,-0.41,0.55,0.03,-0.00,-0.84,-0.56,-0.11,0.04,-0.82,106.03
0,11151,-0.91,-0.04,-0.01,-0.41,0.55,0.03,-0.00,-0.84,-0.56,-0.12,0.04,-0.82,106.11
0,11156,-0.91,-0.04,-0.01,-0.41,0.55,0.03,-0.00,-0.84,-0.56,-0.13,0.04,-0.82,106.12
0,11161,-0.91,-0.04,-0.01,-0.41,0.55,0.03,-0.00,-0.84,-0.56,-0.13,0.05,-0.82,106.20
0,11166,-0.91,-0.04,-0.01,-0.41,0.55,0.03,-0.00,-0.84,-0.56,-0.14,0.05,-0.81,106.24
0,11176,-0.91,-0.04,-0.01,-0.41,0.55,0.03,-0.00,-0.84,-0.56,-0.15,0.06,-0.81,106.38
0,11181,-0.91,-0.04,-0.01,-0.41,0.55,0.03,-0.00,-0.84,-0.56,-0.16,0.06,-0.81,106.44
0,11186,-0.91,-0.04,-0.01,-0.41,0.55,0.03,-0.00,-0.84,-0.56,-0.17,0.07,-0.81,106.54
0,11201,-0.91,-0.04,-0.01,-0.41,0.55,0.03,-0.00,-0.84,-0.57,-0.18,0.08,-0.80,106.67
0,11206,-0.91,-0.04,-0.01,-0.41,0.55,0.03,-0.00,-0.84,-0.57,-0.18,0.08,-0.80,106.73
0,11211,-0.91,-0.04,-0.01,-0.41,0.55,0.03,-0.00,-0.84,-0.57,-0.19,0.08,-0.79,106.77
0,11216,-0.91,-0.04,-0.01,-0.41,0.55,0.03,-0.00,-0.84,-0.58,-0.19,0.09,-0.79,106.85
0,11251,-0.91,-0.04,-0.01,-0.41,0.55,0.03,-0.00,-0.83,-0.58,-0.22,0.11,-0.77,107.42
0,11256,-0.91,-0.04,-0.01,-0.41,0.55,0.03,-0.00,-0.83,-0.58,-0.23,0.11,-0.77,107.51
0,11261,-0.91,-0.04,-0.01,-0.41,0.55,0.03,-0.00,-0.83,-0.58,-0.23,0.11,-0.77,107.54
0,11266,-0.91,-0.04,-0.01,-0.41,0.55,0.03,-0.00,-0.83,-0.58,-0.23,0.12,-0.77,107.60
0,11271,-0.91,-0.04,-0.01,-0.41,0.55,0.03,-0.00,-0.83,-0.58,-0.24,0.12,-0.77,107.68
0,11276,-0.91,-0.04,-0.01,-0.41,0.55,0.03,-0.00,-0.83,-0.58,-0.24,0.12,-0.77,107.76
0,11281,-0.91,-0.04,-0.01,-0.41,0.55,0.03,-0.00,-0.83,-0.58,-0.24,0.13,-0.77,107.84
0,11286,-0.91,-0.04,-0.01,-0.41,0.55,0.03,-0.00,-0.83,-0.58,-0.24,0.13,-0.77,107.93
0,11296,-0.91,-0.04,-0.01,-0.41,0.55,0.03,-0.00,-0.83,-0.58,-0.24,0.13,-0.77,108.13
0,11301,-0.91,-0.04,-0.01,-0.41,0.55,0.03,-0.00,-0.83,-0.58,-0.23,0.13,-0.77,108.19
0,11306,-0.91,-0.04,-0.01,-0.41,0.55,0.03,-0.00,-0.83,-0.57,-0.23,0.13,-0.77,108.25
0,11311,-0.91,-0.04,-0.01,-0.41,0.55,0.03,-0.00,-0.83,-0.57,-0.23,0.13,-0.77,108.33
0,11321,-0.91,-0.04,-0.01,-0.41,0.55,0.03,-0.00,-0.83,-0.57,-0.23,0.14,-0.77,108.53
0,11326,-0.91,-0.04,-0.01,-0.41,0.55,0.03,-0.00,-0.83,-0.57,-0.22,0.13,-0.77,108.61
0,11331,-0.91,-0.04,-0.01,-0.41,0.55,0.03,-0.00,-0.83,-0.57,-0.22,0.13,-0.77,108.67
0,11336,-0.91,-0.04,-0.01,-0.41,0.55,0.03,-0.00,-0.83,-0.58,-0.22,0.13,-0.77,108.77
0,11356,-0.91,-0.04,-0.01,-0.41,0.55,0.03,-0.00,-0.83,-0.58,-0.21,0.12,-0.78,109.00
0,11361,-0.91,-0.04,-0.01,-0.41,0.55,0.03,-0.00,-0.83,-0.59,-0.20,0.11,-0.78,109.10
0,11366,-0.91,-0.04,-0.01,-0.41,0.55,0.03,-0.00,-0.83,-0.59,-0.20,0.11,-0.78,109.20
0,11371,-0.91,-0.04,-0.01,-0.41,0.55,0.03,-0.00,-0.83,-0.59,-0.19,0.10,-0.78,109.30
0,11381,-0.91,-0.04,-0.01,-0.41,0.55,0.03,-0.00,-0.83,-0.59,-0.19,0.09,-0.78,109.99
0,11386,-0.91,-0.04,-0.01,-0.41,0.55,0.03,-0.00,-0.83,-0.60,-0.19,0.08,-0.78,110.68
0,11391,-0.91,-0.04,-0.01,-0.41,0.55,0.03,-0.00,-0.83,-0.60,-0.19,0.07,-0.78,111.49
0,11396,-0.91,-0.04,-0.01,-0.41,0.55,0.03,-0.00,-0.83,-0.60,-0.19,0.07,-0.78,112.06
0,11411,-0.91,-0.04,-0.01,-0.41,0.55,0.03,-0.00,-0.83,-0.60,-0.18,0.04,-0.78,112.54
0,11416,-0.91,-0.04,-0.01,-0.41,0.55,0.03,-0.00,-0.83,-0.60,-0.17,0.06,-0.78,112.69
0,11421,-0.91,-0.04,-0.01,-0.41,0.55,0.03,-0.00,-0.83,-0.60,-0.15,0.07,-0.78,112.88
0,11426,-0.91,-0.04,-0.01,-0.41,0.55,0.03,-0.00,-0.83,-0.61,-0.14,0.08,-0.78,113.05
0,11436,-0.91,-0.04,-0.01,-0.41,0.55,0.03,-0.00,-0.83,-0.61,-0.13,0.07,-0.78,113.60
0,11446,-0.91,-0.04,-0.01,-0.41,0.55,0.03,-0.00,-0.83,-0.61,-0.12,0.07,-0.78,114.31
0,11451,-0.91,-0.04,-0.01,-0.41,0.55,0.03,-0.00,-0.83,-0.61,-0.11,0.07,-0.78,114.64
0,11456,-0.91,-0.04,-0.01,-0.41,0.55,0.03,-0.00,-0.83,-0.62,-0.11,0.08,-0.78,115.04
0,11461,-0.91,-0.04,-0.01,-0.41,0.55,0.03,-0.00,-0.83,-0.62,-0.10,0.08,-0.78,115.27
0,11471,-0.91,-0.04,-0.01,-0.41,0.55,0.03,-0.00,-0.83,-0.62,-0.10,0.08,-0.78,115.60
0,11476,-0.91,-0.04,-0.01,-0.41,0.55,0.03,-0.00,-0.83,-0.62,-0.10,0.08,-0.78,115.61
0,11481,-0.91,-0.04,-0.01,-0.41,0.55,0.03,-0.00,-0.83,-0.62,-0.09,0.08,-0.78,115.61
0,11491,-0.91,-0.04,-0.01,-0.41,0.55,0.03,-0.00,-0.83,-0.61,-0.09,0.08,-0.78,115.57
0,11506,-0.91,-0.04,-0.01,-0.41,0.55,0.03,-0.00,-0.83,-0.62,-0.08,0.08,-0.78,115.18
0,11511,-0.91,-0.04,-0.01,-0.41,0.55,0.03,-0.00,-0.83,-0.62,-0.08,0.08,-0.78,114.89
0,11516,-0.91,-0.04,-0.01,-0.41,0.55,0.03,-0.00,-0.83,-0.62,-0.08,0.08,-0.78,114.53
0,11526,-0.91,-0.04,-0.01,-0.41,0.55,0.03,-0.00,-0.83,-0.62,-0.07,0.08,-0.78,113.82
0,11531,-0.91,-0.04,-0.01,-0.41,0.55,0.03,-0.00,-0.83,-0.62,-0.07,0.08,-0.78,113.52
0,11536,-0.91,-0.04,-0.01,-0.41,0.55,0.03,-0.00,-0.83,-0.61,-0.07,0.08,-0.78,113.30
0,11541,-0.91,-0.04,-0.01,-0.41,0.55,0.03,-0.00,-0.83,-0.61,-0.07,0.08,-0.78,113.11
0,11566,-0.91,-0.04,-0.01,-0.41,0.55,0.03,-0.00,-0.83,-0.61,-0.09,0.09,-0.78,112.60
0,11571,-0.91,-0.04,-0.01,-0.41,0.55,0.03,-0.00,-0.83,-0.61,-0.09,0.08,-0.78,112.61
0,11576,-0.91,-0.04,-0.01,-0.41,0.55,0.03,-0.00,-0.83,-0.61,-0.10,0.08,-0.78,112.73
0,11581,-0.91,-0.04,-0.01,-0.41,0.55,0.03,-0.00,-0.83,-0.61,-0.10,0.08,-0.78,112.77
0,11586,-0.91,-0.04,-0.01,-0.41,0.55,0.03,-0.00,-0.83,-0.61,-0.11,0.08,-0.78,112.79
0,11591,-0.91,-0.04,-0.01,-0.41,0.55,0.03,-0.00,-0.83,-0.61,-0.11,0.07,-0.78,112.81
0,11596,-0.91,-0.04,-0.01,-0.41,0.55,0.03,-0.00,-0.83,-0.61,-0.12,0.06,-0.78,112.81
0,11601,-0.91,-0.04,-0.01,-0.41,0.55,0.03,-0.00,-0.83,-0.61,-0.12,0.06,-0.78,112.83
0,11626,-0.91,-0.04,-0.01,-0.41,0.55,0.03,-0.00,-0.83,-0.60,-0.13,0.05,-0.78,112.87
0,11631,-0.91,-0.04,-0.01,-0.41,0.55,0.03,-0.00,-0.83,-0.60,-0.13,0.05,-0.78,112.91
0,11636,-0.91,-0.04,-0.01,-0.41,0.55,0.03,-0.00,-0.83,-0.60,-0.13,0.05,-0.78,112.93
0,11641,-0.91,-0.04,-0.01,-0.41,0.55,0.03,-0.00,-0.83,-0.61,-0.13,0.05,-0.78,112.97
0,11656,-0.91,-0.04,-0.01,-0.41,0.55,0.03,-0.00,-0.83,-0.61,-0.13,0.06,-0.78,113.07
0,11661,-0.91,-0.04,-0.01,-0.41,0.55,0.03,-0.00,-0.83,-0.61,-0.13,0.06,-0.78,113.12
0,11666,-0.91,-0.04,-0.01,-0.41,0.55,0.03,-0.00,-0.83,-0.61,-0.13,0.06,-0.78,113.24
0,11676,-0.91,-0.04,-0.01,-0.41,0.55,0.03,-0.00,-0.83,-0.61,-0.13,0.06,-0.78,113.40
0,11686,-0.91,-0.04,-0.01,-0.41,0.55,0.03,-0.00,-0.83,-0.61,-0.13,0.07,-0.77,113.56
0,11691,-0.91,-0.04,-0.01,-0.41,0.55,0.03,-0.00,-0.83,-0.62,-0.14,0.07,-0.77,113.65
0,11696,-0.91,-0.04,-0.01,-0.41,0.55,0.03,-0.00,-0.83,-0.62,-0.14,0.07,-0.77,113.72
0,11711,-0.91,-0.04,-0.01,-0.41,0.55,0.03,-0.00,-0.83,-0.62,-0.14,0.07,-0.77,118.18
0,11721,-0.91,-0.04,-0.01,-0.41,0.55,0.03,-0.00,-0.83,-0.62,-0.14,0.06,-0.77,121.79
0,11726,-0.91,-0.04,-0.01,-0.41,0.55,0.03,-0.00,-0.83,-0.62,-0.14,0.06,-0.77,121.29
0,11731,-0.91,-0.04,-0.01,-0.41,0.55,0.03,-0.00,-0.83,-0.62,-0.15,0.05,-0.77,120.78
0,11736,-0.91,-0.04,-0.01,-0.41,0.55,0.03,-0.00,-0.83,-0.62,-0.15,0.05,-0.77,120.57
0,11746,-0.91,-0.04,-0.01,-0.41,0.55,0.03,-0.00,-0.83,-0.62,-0.15,0.07,-0.77,119.75
0,11751,-0.91,-0.04,-0.01,-0.41,0.55,0.03,-0.00,-0.83,-0.62,-0.14,0.09,-0.77,118.85
0,11756,-0.91,-0.04,-0.01,-0.41,0.55,0.03,-0.00,-0.83,-0.62,-0.13,0.09,-0.77,117.92
0,11771,-0.91,-0.04,-0.01,-0.41,0.55,0.03,-0.00,-0.83,-0.62,-0.11,0.09,-0.77,117.35
0,11781,-0.91,-0.04,-0.01,-0.41,0.55,0.03,-0.00,-0.83,-0.62,-0.10,0.09,-0.77,117.84
0,11786,-0.91,-0.04,-0.01,-0.41,0.55,0.03,-0.00,-0.83,-0.62,-0.10,0.09,-0.77,117.93
0,11796,-0.91,-0.04,-0.01,-0.41,0.55,0.03,-0.00,-0.83,-0.62,-0.10,0.09,-0.77,117.78
0,11801,-0.91,-0.04,-0.01,-0.41,0.55,0.03,-0.00,-0.83,-0.62,-0.10,0.09,-0.77,117.62
0,11806,-0.91,-0.04,-0.01,-0.41,0.55,0.03,-0.00,-0.83,-0.62,-0.10,0.09,-0.77,117.37
0,11811,-0.91,-0.04,-0.01,-0.41,0.55,0.03,-0.00,-0.83,-0.62,-0.11,0.09,-0.77,117.01
0,11821,-0.91,-0.04,-0.01,-0.41,0.55,0.03,-0.00,-0.83,-0.62,-0.11,0.09,-0.77,116.21
0,11831,-0.91,-0.04,-0.01,-0.41,0.55,0.03,-0.00,-0.83,-0.62,-0.12,0.09,-0.77,115.22
0,11841,-0.91,-0.04,-0.01,-0.41,0.55,0.03,-0.00,-0.83,-0.61,-0.12,0.09,-0.77,114.35
0,11846,-0.91,-0.04,-0.01,-0.41,0.55,0.03,-0.00,-0.83,-0.61,-0.12,0.09,-0.77,114.17
0,11851,-0.91,-0.04,-0.01,-0.41,0.55,0.03,-0.00,-0.83,-0.61,-0.12,0.09,-0.77,114.01
0,11856,-0.91,-0.04,-0.01,-0.41,0.55,0.03,-0.00,-0.83,-0.61,-0.12,0.09,-0.77,113.92
0,11861,-0.91,-0.04,-0.01,-0.41,0.55,0.03,-0.00,-0.83,-0.61,-0.12,0.09,-0.77,113.66
0,11866,-0.91,-0.04,-0.01,-0.41,0.55,0.03,-0.00,-0.83,-0.61,-0.12,0.09,-0.78,113.82
0,11871,-0.91,-0.04,-0.01,-0.41,0.55,0.03,-0.00,-0.83,-0.61,-0.12,0.09,-0.78,113.89
0,11881,-0.91,-0.04,-0.01,-0.41,0.55,0.03,-0.00,-0.83,-0.61,-0.12,0.08,-0.78,114.02
0,11886,-0.91,-0.04,-0.01,-0.41,0.55,0.03,-0.00,-0.83,-0.61,-0.12,0.08,-0.78,114.03
0,11891,-0.91,-0.04,-0.01,-0.41,0.55,0.03,-0.00,-0.83,-0.61,-0.12,0.07,-0.78,114.01
0,11896,-0.91,-0.04,-0.01,-0.41,0.55,0.03,-0.00,-0.83,-0.61,-0.13,0.07,-0.78,114.02
0,11901,-0.91,-0.04,-0.01,-0.41,0.55,0.03,-0.00,-0.83,-0.61,-0.13,0.06,-0.78,114.04
0,11911,-0.91,-0.04,-0.01,-0.41,0.55,0.03,-0.00,-0.83,-0.62,-0.13,0.06,-0.77,114.04
0,11916,-0.91,-0.04,-0.01,-0.41,0.55,0.03,-0.00,-0.83,-0.62,-0.12,0.06,-0.77,114.02
0,11921,-0.91,-0.04,-0.01,-0.41,0.55,0.03,-0.00,-0.83,-0.62,-0.12,0.06,-0.77,114.06
0,11926,-0.91,-0.04,-0.01,-0.41,0.55,0.03,-0.00,-0.83,-0.62,-0.12,0.06,-0.77,114.07
0,11936,-0.91,-0.04,-0.01,-0.41,0.55,0.03,-0.00,-0.83,-0.62,-0.11,0.06,-0.77,114.07
0,11941,-0.91,-0.04,-0.01,-0.41,0.55,0.03,-0.00,-0.83,-0.62,-0.11,0.06,-0.77,114.10
0,11946,-0.91,-0.04,-0.01,-0.41,0.55,0.03,-0.00,-0.83,-0.62,-0.11,0.06,-0.77,114.07
0,11951,-0.91,-0.04,-0.01,-0.41,0.55,0.03,-0.00,-0.83,-0.62,-0.11,0.06,-0.77,114.09
0,11961,-0.91,-0.04,-0.01,-0.41,0.55,0.03,-0.00,-0.83,-0.63,-0.10,0.06,-0.77,114.07
0,11976,-0.91,-0.04,-0.01,-0.41,0.55,0.03,-0.00,-0.83,-0.63,-0.10,0.07,-0.77,114.09
0,11981,-0.91,-0.04,-0.01,-0.41,0.55,0.03,-0.00,-0.83,-0.63,-0.11,0.07,-0.76,114.14
0,11986,-0.91,-0.04,-0.01,-0.41,0.55,0.03,-0.00,-0.83,-0.63,-0.11,0.07,-0.76,114.13
0,12001,-0.91,-0.04,-0.01,-0.41,0.55,0.03,-0.00,-0.83,-0.63,-0.11,0.07,-0.76,114.71
0,12006,-0.91,-0.04,-0.01,-0.41,0.55,0.03,-0.00,-0.83,-0.63,-0.11,0.06,-0.76,118.75
0,12011,-0.91,-0.04,-0.01,-0.41,0.55,0.03,-0.00,-0.83,-0.63,-0.12,0.06,-0.76,122.97
0,12016,-0.91,-0.04,-0.01,-0.41,0.55,0.03,-0.00,-0.83,-0.63,-0.12,0.06,-0.76,124.99
0,12031,-0.91,-0.04,-0.01,-0.41,0.55,0.03,-0.00,-0.83,-0.63,-0.12,0.05,-0.76,123.03
0,12036,-0.91,-0.04,-0.01,-0.41,0.55,0.03,-0.00,-0.83,-0.63,-0.12,0.05,-0.76,122.95
0,12041,-0.91,-0.04,-0.01,-0.41,0.55,0.03,-0.00,-0.83,-0.63,-0.13,0.05,-0.76,122.56
0,12046,-0.91,-0.04,-0.01,-0.41,0.55,0.03,-0.00,-0.83,-0.63,-0.12,0.07,-0.76,121.46
0,12061,-0.91,-0.04,-0.01,-0.41,0.55,0.03,-0.00,-0.83,-0.64,-0.09,0.08,-0.76,119.00
0,12066,-0.91,-0.04,-0.01,-0.41,0.55,0.03,-0.00,-0.83,-0.64,-0.09,0.08,-0.76,119.10
0,12071,-0.91,-0.04,-0.01,-0.41,0.55,0.03,-0.00,-0.83,-0.64,-0.08,0.08,-0.76,119.40
0,12076,-0.91,-0.04,-0.01,-0.41,0.55,0.03,-0.00,-0.83,-0.64,-0.08,0.08,-0.76,119.66
0,12096,-0.91,-0.04,-0.01,-0.41,0.55,0.03,-0.00,-0.83,-0.64,-0.08,0.09,-0.76,119.72
0,12101,-0.91,-0.04,-0.01,-0.41,0.55,0.03,-0.00,-0.83,-0.64,-0.08,0.09,-0.76,119.50
0,12106,-0.91,-0.04,-0.01,-0.41,0.55,0.03,-0.00,-0.83,-0.63,-0.08,0.09,-0.76,119.11
0,12111,-0.91,-0.04,-0.01,-0.41,0.55,0.03,-0.00,-0.83,-0.63,-0.08,0.09,-0.76,118.81
0,12126,-0.91,-0.04,-0.01,-0.41,0.55,0.03,-0.00,-0.83,-0.63,-0.09,0.09,-0.76,117.57
0,12131,-0.91,-0.04,-0.01,-0.41,0.55,0.03,-0.00,-0.83,-0.63,-0.09,0.09,-0.76,117.11
0,12136,-0.91,-0.04,-0.01,-0.41,0.55,0.03,-0.00,-0.83,-0.63,-0.09,0.09,-0.76,116.62
0,12141,-0.91,-0.04,-0.01,-0.41,0.55,0.03,-0.00,-0.83,-0.63,-0.09,0.09,-0.76,116.01
0,12161,-0.91,-0.04,-0.01,-0.41,0.55,0.03,-0.00,-0.83,-0.63,-0.10,0.09,-0.76,113.89
0,12166,-0.91,-0.04,-0.01,-0.41,0.55,0.03,-0.00,-0.83,-0.63,-0.10,0.09,-0.76,113.56
0,12171,-0.91,-0.04,-0.01,-0.41,0.55,0.03,-0.00,-0.83,-0.63,-0.10,0.09,-0.76,113.25
0,12176,-0.91,-0.04,-0.01,-0.41,0.55,0.03,-0.00,-0.83,-0.63,-0.10,0.09,-0.76,113.09
0,12181,-0.91,-0.04,-0.01,-0.41,0.55,0.03,-0.00,-0.83,-0.63,-0.10,0.09,-0.76,113.27
0,12186,-0.91,-0.04,-0.01,-0.41,0.55,0.03,-0.00,-0.83,-0.63,-0.10,0.09,-0.76,113.27
0,12191,-0.91,-0.04,-0.01,-0.41,0.55,0.03,-0.00,-0.83,-0.63,-0.10,0.09,-0.76,113.29
0,12196,-0.91,-0.04,-0.01,-0.41,0.55,0.03,-0.00,-0.83,-0.63,-0.10,0.09,-0.76,113.33
0,12216,-0.91,-0.04,-0.01,-0.41,0.55,0.03,-0.00,-0.83,-0.63,-0.11,0.07,-0.76,113.25
0,12221,-0.91,-0.04,-0.01,-0.41,0.55,0.03,-0.00,-0.83,-0.63,-0.11,0.07,-0.76,113.25
0,12226,-0.91,-0.04,-0.01,-0.41,0.55,0.03,-0.00,-0.83,-0.63,-0.11,0.07,-0.76,113.23
0,12231,-0.91,-0.04,-0.01,-0.41,0.55,0.03,-0.00,-0.83,-0.64,-0.11,0.07,-0.76,113.24
0,12236,-0.91,-0.04,-0.01,-0.41,0.55,0.03,-0.00,-0.83,-0.64,-0.11,0.07,-0.76,113.21
0,12241,-0.91,-0.04,-0.01,-0.41,0.55,0.03,-0.00,-0.83,-0.64,-0.11,0.08,-0.76,113.19
0,12246,-0.91,-0.04,-0.01,-0.41,0.55,0.03,-0.00,-0.83,-0.64,-0.11,0.08,-0.76,113.17
0,12251,-0.91,-0.04,-0.01,-0.41,0.55,0.03,-0.00,-0.83,-0.64,-0.11,0.08,-0.75,113.17
0,12271,-0.91,-0.04,-0.01,-0.41,0.55,0.03,-0.00,-0.83,-0.64,-0.12,0.09,-0.75,113.19
0,12276,-0.91,-0.04,-0.01,-0.41,0.55,0.03,-0.00,-0.83,-0.65,-0.12,0.09,-0.75,113.17
0,12281,-0.91,-0.04,-0.01,-0.41,0.55,0.03,-0.00,-0.83,-0.65,-0.12,0.09,-0.75,113.21
0,12286,-0.91,-0.04,-0.01,-0.41,0.55,0.03,-0.00,-0.83,-0.65,-0.12,0.10,-0.75,113.23
0,12296,-0.91,-0.04,-0.01,-0.41,0.55,0.03,-0.00,-0.83,-0.65,-0.13,0.10,-0.74,113.25
0,12301,-0.91,-0.04,-0.01,-0.41,0.55,0.03,-0.00,-0.83,-0.65,-0.13,0.10,-0.74,113.25
0,12306,-0.91,-0.04,-0.01,-0.41,0.55,0.03,-0.00,-0.83,-0.65,-0.13,0.10,-0.74,113.27
0,12311,-0.91,-0.04,-0.01,-0.41,0.55,0.03,-0.00,-0.83,-0.65,-0.13,0.10,-0.74,113.29
0,12331,-0.91,-0.04,-0.01,-0.41,0.55,0.03,-0.00,-0.83,-0.65,-0.15,0.11,-0.74,120.88
0,12336,-0.91,-0.04,-0.01,-0.41,0.55,0.03,-0.00,-0.83,-0.65,-0.15,0.10,-0.74,120.57
0,12341,-0.91,-0.04,-0.01,-0.41,0.55,0.03,-0.00,-0.83,-0.65,-0.15,0.10,-0.74,120.33
0,12346,-0.91,-0.04,-0.01,-0.41,0.55,0.03,-0.00,-0.83,-0.64,-0.15,0.10,-0.74,120.17
0,12356,-0.91,-0.04,-0.01,-0.41,0.55,0.03,-0.00,-0.83,-0.64,-0.15,0.09,-0.75,120.19
0,12361,-0.91,-0.04,-0.01,-0.41,0.55,0.03,-0.00,-0.83,-0.64,-0.15,0.09,-0.75,119.83
0,12366,-0.91,-0.04,-0.01,-0.41,0.55,0.03,-0.00,-0.83,-0.64,-0.14,0.09,-0.75,119.19
0,12371,-0.91,-0.04,-0.01,-0.41,0.55,0.03,-0.00,-0.83,-0.64,-0.12,0.09,-0.75,118.54
0,12391,-0.91,-0.04,-0.01,-0.41,0.55,0.03,-0.00,-0.83,-0.64,-0.09,0.09,-0.75,117.88
0,12396,-0.91,-0.04,-0.01,-0.41,0.55,0.03,-0.00,-0.83,-0.64,-0.09,0.09,-0.75,117.98
0,12401,-0.91,-0.04,-0.01,-0.41,0.55,0.03,-0.00,-0.83,-0.64,-0.08,0.09,-0.75,118.08
0,12411,-0.91,-0.04,-0.01,-0.41,0.55,0.03,-0.00,-0.83,-0.64,-0.08,0.09,-0.75,118.08
0,12426,-0.91,-0.04,-0.01,-0.41,0.55,0.03,-0.00,-0.83,-0.64,-0.09,0.09,-0.76,117.96
0,12431,-0.91,-0.04,-0.01,-0.41,0.55,0.03,-0.00,-0.83,-0.64,-0.09,0.09,-0.76,117.88
0,12436,-0.91,-0.04,-0.01,-0.41,0.55,0.03,-0.00,-0.83,-0.64,-0.09,0.10,-0.76,117.81
0,12441,-0.91,-0.04,-0.01,-0.41,0.55,0.03,-0.00,-0.83,-0.64,-0.09,0.10,-0.76,117.75
0,12451,-0.91,-0.04,-0.01,-0.41,0.55,0.03,-0.00,-0.83,-0.64,-0.10,0.09,-0.76,117.57
0,12456,-0.91,-0.04,-0.01,-0.41,0.55,0.03,-0.00,-0.83,-0.64,-0.10,0.09,-0.76,117.41
0,12471,-0.91,-0.04,-0.01,-0.41,0.55,0.03,-0.00,-0.83,-0.63,-0.10,0.09,-0.76,116.54
0,12481,-0.91,-0.04,-0.01,-0.41,0.55,0.03,-0.00,-0.83,-0.63,-0.10,0.09,-0.76,115.66
0,12491,-0.91,-0.04,-0.01,-0.41,0.55,0.03,-0.00,-0.83,-0.63,-0.10,0.09,-0.76,114.71
0,12496,-0.91,-0.04,-0.01,-0.41,0.55,0.03,-0.00,-0.83,-0.63,-0.11,0.09,-0.76,114.22
0,12511,-0.91,-0.04,-0.01,-0.41,0.55,0.03,-0.00,-0.83,-0.63,-0.11,0.10,-0.76,113.09
0,12516,-0.91,-0.04,-0.01,-0.41,0.55,0.03,-0.00,-0.83,-0.63,-0.12,0.10,-0.76,112.82
0,12521,-0.91,-0.04,-0.01,-0.41,0.55,0.03,-0.00,-0.83,-0.63,-0.12,0.10,-0.76,112.70
0,12526,-0.91,-0.04,-0.01,-0.41,0.55,0.03,-0.00,-0.83,-0.63,-0.12,0.10,-0.76,112.58
0,12541,-0.91,-0.04,-0.01,-0.41,0.55,0.03,-0.00,-0.83,-0.63,-0.14,0.10,-0.76,112.48
0,12546,-0.91,-0.04,-0.01,-0.41,0.55,0.03,-0.00,-0.83,-0.62,-0.14,0.10,-0.76,112.50
0,12551,-0.91,-0.04,-0.01,-0.41,0.55,0.03,-0.00,-0.83,-0.62,-0.14,0.10,-0.76,112.50
0,12556,-0.91,-0.04,-0.01,-0.41,0.55,0.03,-0.00,-0.83,-0.62,-0.15,0.10,-0.76,112.52
0,12566,-0.91,-0.04,-0.01,-0.41,0.55,0.03,-0.00,-0.83,-0.62,-0.16,0.10,-0.76,112.52
0,12571,-0.91,-0.04,-0.01,-0.41,0.55,0.03,-0.00,-0.83,-0.62,-0.17,0.10,-0.76,112.54
0,12576,-0.91,-0.04,-0.01,-0.41,0.55,0.03,-0.00,-0.83,-0.62,-0.17,0.10,-0.76,112.54
0,12581,-0.91,-0.04,-0.01,-0.41,0.55,0.03,-0.00,-0.83,-0.61,-0.18,0.10,-0.76,112.54
0,12586,-0.91,-0.04,-0.01,-0.41,0.55,0.03,-0.00,-0.83,-0.61,-0.19,0.10,-0.76,112.56
0,12596,-0.91,-0.04,-0.01,-0.41,0.55,0.03,-0.00,-0.83,-0.61,-0.19,0.10,-0.76,112.58
0,12601,-0.91,-0.04,-0.01,-0.41,0.55,0.03,-0.00,-0.83,-0.61,-0.20,0.11,-0.76,112.60
0,12606,-0.91,-0.04,-0.01,-0.41,0.55,0.03,-0.00,-0.83,-0.61,-0.20,0.11,-0.76,112.62
0,12621,-0.91,-0.04,-0.01,-0.41,0.55,0.03,-0.00,-0.83,-0.60,-0.22,0.12,-0.76,112.60
0,12626,-0.91,-0.04,-0.01,-0.41,0.55,0.03,-0.00,-0.83,-0.60,-0.22,0.12,-0.76,112.62
0,12631,-0.91,-0.04,-0.01,-0.41,0.55,0.03,-0.00,-0.83,-0.60,-0.23,0.13,-0.76,112.62
0,12636,-0.91,-0.04,-0.01,-0.41,0.55,0.03,-0.00,-0.83,-0.60,-0.23,0.13,-0.76,112.61
0,12641,-0.91,-0.04,-0.01,-0.41,0.55,0.03,-0.00,-0.83,-0.59,-0.24,0.14,-0.75,112.60
0,12651,-0.91,-0.04,-0.01,-0.41,0.55,0.03,-0.00,-0.83,-0.59,-0.25,0.14,-0.75,112.54
0,12656,-0.91,-0.04,-0.01,-0.41,0.55,0.03,-0.00,-0.83,-0.58,-0.26,0.15,-0.75,112.52
0,12661,-0.91,-0.04,-0.01,-0.41,0.55,0.03,-0.00,-0.83,-0.58,-0.27,0.15,-0.75,112.48
0,12671,-0.91,-0.04,-0.01,-0.41,0.55,0.03,-0.00,-0.83,-0.58,-0.29,0.16,-0.75,112.42
0,12676,-0.91,-0.04,-0.01,-0.41,0.55,0.03,-0.00,-0.83,-0.57,-0.29,0.16,-0.75,112.40
0,12681,-0.91,-0.04,-0.01,-0.41,0.55,0.03,-0.00,-0.83,-0.57,-0.30,0.17,-0.75,112.39
0,12686,-0.91,-0.04,-0.01,-0.41,0.55,0.03,-0.00,-0.83,-0.57,-0.31,0.17,-0.74,112.38
0,12716,-0.91,-0.04,-0.01,-0.41,0.55,0.03,-0.00,-0.83,-0.55,-0.33,0.19,-0.74,112.36
0,12721,-0.91,-0.04,-0.01,-0.41,0.55,0.03,-0.00,-0.83,-0.55,-0.34,0.20,-0.74,112.36
0,12726,-0.91,-0.04,-0.01,-0.41,0.55,0.03,-0.00,-0.83,-0.54,-0.34,0.20,-0.74,112.38
0,12731,-0.91,-0.04,-0.01,-0.41,0.55,0.03,-0.00,-0.83,-0.54,-0.34,0.20,-0.74,112.36
0,12741,-0.91,-0.04,-0.01,-0.41,0.55,0.03,-0.00,-0.83,-0.54,-0.34,0.21,-0.74,112.38
0,12746,-0.91,-0.04,-0.01,-0.41,0.55,0.03,-0.00,-0.83,-0.54,-0.34,0.21,-0.74,112.40
0,12751,-0.91,-0.04,-0.01,-0.41,0.55,0.03,-0.00,-0.83,-0.54,-0.35,0.22,-0.74,112.38
0,12756,-0.91,-0.04,-0.01,-0.41,0.55,0.03,-0.00,-0.83,-0.54,-0.35,0.22,-0.74,112.40
0,12766,-0.91,-0.04,-0.01,-0.41,0.55,0.03,-0.00,-0.83,-0.53,-0.36,0.22,-0.73,112.42
0,12771,-0.91,-0.04,-0.01,-0.41,0.55,0.03,-0.00,-0.83,-0.53,-0.36,0.23,-0.73,112.43
0,12776,-0.91,-0.04,-0.01,-0.41,0.55,0.03,-0.00,-0.83,-0.53,-0.37,0.23,-0.73,112.44
0,12786,-0.91,-0.04,-0.01,-0.41,0.55,0.03,-0.00,-0.83,-0.52,-0.37,0.24,-0.73,112.49
0,12796,-0.91,-0.04,-0.01,-0.41,0.55,0.03,-0.00,-0.83,-0.52,-0.38,0.24,-0.72,112.52
0,12801,-0.91,-0.04,-0.01,-0.41,0.55,0.03,-0.00,-0.83,-0.52,-0.38,0.24,-0.72,112.56
0,12811,-0.91,-0.04,-0.01,-0.41,0.55,0.03,-0.00,-0.83,-0.53,-0.38,0.24,-0.72,112.62
0,12816,-0.91,-0.04,-0.01,-0.41,0.55,0.03,-0.00,-0.83,-0.53,-0.38,0.24,-0.72,112.62
0,12821,-0.91,-0.04,-0.01,-0.41,0.55,0.03,-0.00,-0.83,-0.53,-0.38,0.23,-0.72,112.64
0,12826,-0.91,-0.04,-0.01,-0.41,0.55,0.03,-0.00,-0.83,-0.53,-0.38,0.23,-0.72,112.68
0,12831,-0.91,-0.04,-0.01,-0.41,0.55,0.03,-0.00,-0.83,-0.54,-0.38,0.22,-0.72,112.68
0,12841,-0.91,-0.04,-0.01,-0.41,0.55,0.03,-0.00,-0.83,-0.55,-0.37,0.21,-0.72,113.05
0,12851,-0.91,-0.04,-0.01,-0.41,0.55,0.03,-0.00,-0.83,-0.55,-0.35,0.20,-0.73,114.51
0,12856,-0.91,-0.04,-0.01,-0.41,0.55,0.03,-0.00,-0.83,-0.56,-0.35,0.19,-0.73,115.13
0,12861,-0.91,-0.04,-0.01,-0.41,0.55,0.03,-0.00,-0.83,-0.56,-0.34,0.18,-0.73,115.52
0,12876,-0.91,-0.04,-0.01,-0.41,0.55,0.03,-0.00,-0.83,-0.57,-0.31,0.15,-0.74,116.96
0,12886,-0.91,-0.04,-0.01,-0.41,0.55,0.03,-0.00,-0.83,-0.59,-0.25,0.12,-0.76,117.83
0,12891,-0.91,-0.04,-0.01,-0.41,0.55,0.03,-0.00,-0.83,-0.60,-0.23,0.11,-0.76,118.07
0,12896,-0.91,-0.04,-0.01,-0.41,0.55,0.03,-0.00,-0.83,-0.60,-0.22,0.11,-0.76,118.36
0,12911,-0.91,-0.04,-0.01,-0.41,0.55,0.03,-0.00,-0.83,-0.61,-0.18,0.10,-0.77,119.72
0,12921,-0.91,-0.04,-0.01,-0.41,0.55,0.03,-0.00,-0.83,-0.61,-0.16,0.09,-0.77,120.39
0,12926,-0.91,-0.04,-0.01,-0.41,0.55,0.03,-0.00,-0.83,-0.61,-0.15,0.09,-0.77,120.59
0,12931,-0.91,-0.04,-0.01,-0.41,0.55,0.03,-0.00,-0.83,-0.61,-0.14,0.09,-0.77,120.71
0,12936,-0.91,-0.04,-0.01,-0.41,0.55,0.03,-0.00,-0.83,-0.61,-0.14,0.08,-0.77,120.79
0,12946,-0.91,-0.04,-0.01,-0.41,0.55,0.03,-0.00,-0.83,-0.62,-0.13,0.08,-0.77,120.88
0,12951,-0.91,-0.04,-0.01,-0.41,0.55,0.03,-0.00,-0.83,-0.62,-0.12,0.08,-0.77,120.81
0,12956,-0.91,-0.04,-0.01,-0.41,0.55,0.03,-0.00,-0.83,-0.62,-0.12,0.08,-0.77,120.65
0,12961,-0.91,-0.04,-0.01,-0.41,0.55,0.03,-0.00,-0.83,-0.62,-0.12,0.08,-0.77,120.43
0,12971,-0.91,-0.04,-0.01,-0.41,0.55,0.03,-0.00,-0.83,-0.62,-0.11,0.07,-0.78,120.10
0,12976,-0.91,-0.04,-0.01,-0.41,0.55,0.03,-0.00,-0.83,-0.62,-0.11,0.07,-0.78,119.98
0,12981,-0.91,-0.04,-0.01,-0.41,0.55,0.03,-0.00,-0.83,-0.62,-0.11,0.07,-0.78,119.90
0,12996,-0.91,-0.04,-0.01,-0.41,0.55,0.03,-0.00,-0.83,-0.62,-0.11,0.07,-0.78,119.84
0,13006,-0.91,-0.04,-0.01,-0.41,0.55,0.03,-0.00,-0.83,-0.62,-0.11,0.07,-0.78,119.90
0,13011,-0.91,-0.04,-0.01,-0.41,0.55,0.03,-0.00,-0.83,-0.62,-0.11,0.07,-0.78,119.88
0,13021,-0.91,-0.04,-0.01,-0.41,0.55,0.03,-0.00,-0.83,-0.62,-0.11,0.07,-0.78,119.64
0,13026,-0.91,-0.04,-0.01,-0.41,0.55,0.03,-0.00,-0.83,-0.62,-0.10,0.07,-0.78,119.45
0,13036,-0.91,-0.04,-0.01,-0.41,0.55,0.03,-0.00,-0.83,-0.62,-0.10,0.07,-0.78,118.93
0,13046,-0.91,-0.04,-0.01,-0.41,0.55,0.03,-0.00,-0.83,-0.62,-0.10,0.07,-0.78,118.34
0,13056,-0.91,-0.04,-0.01,-0.41,0.55,0.03,-0.00,-0.83,-0.62,-0.10,0.07,-0.78,117.66
0,13061,-0.91,-0.04,-0.01,-0.41,0.55,0.03,-0.00,-0.83,-0.62,-0.10,0.07,-0.78,117.26
0,13066,-0.91,-0.04,-0.01,-0.41,0.55,0.03,-0.00,-0.83,-0.62,-0.10,0.07,-0.78,116.84
0,13071,-0.91,-0.04,-0.01,-0.41,0.55,0.03,-0.00,-0.83,-0.62,-0.10,0.08,-0.78,116.39
0,13076,-0.91,-0.04,-0.01,-0.41,0.55,0.03,-0.00,-0.83,-0.62,-0.11,0.08,-0.78,115.86
0,13081,-0.91,-0.04,-0.01,-0.41,0.55,0.03,-0.00,-0.83,-0.62,-0.11,0.08,-0.78,115.24
0,13091,-0.91,-0.04,-0.01,-0.41,0.55,0.03,-0.00,-0.83,-0.62,-0.11,0.08,-0.77,114.04
0,13096,-0.91,-0.04,-0.01,-0.41,0.55,0.03,-0.00,-0.83,-0.62,-0.11,0.08,-0.77,113.48
0,13111,-0.91,-0.04,-0.01,-0.41,0.55,0.03,-0.00,-0.83,-0.61,-0.12,0.09,-0.77,112.25
0,13116,-0.91,-0.04,-0.01,-0.41,0.55,0.03,-0.00,-0.83,-0.61,-0.13,0.09,-0.77,111.99
0,13121,-0.91,-0.04,-0.01,-0.41,0.55,0.03,-0.00,-0.83,-0.61,-0.13,0.09,-0.77,111.73
0,13126,-0.91,-0.04,-0.01,-0.41,0.55,0.03,-0.00,-0.83,-0.61,-0.14,0.10,-0.77,111.56
0,13131,-0.91,-0.04,-0.01,-0.41,0.55,0.03,-0.00,-0.83,-0.61,-0.14,0.10,-0.77,111.51
0,13136,-0.91,-0.04,-0.01,-0.41,0.55,0.03,-0.00,-0.83,-0.61,-0.15,0.11,-0.77,111.60
0,13146,-0.91,-0.04,-0.01,-0.41,0.55,0.03,-0.00,-0.83,-0.61,-0.17,0.12,-0.76,111.64
0,13151,-0.91,-0.04,-0.01,-0.41,0.55,0.03,-0.00,-0.83,-0.61,-0.17,0.12,-0.76,111.67
0,13156,-0.91,-0.04,-0.01,-0.41,0.55,0.03,-0.00,-0.83,-0.61,-0.19,0.13,-0.76,111.65
0,13166,-0.91,-0.04,-0.01,-0.41,0.55,0.03,-0.00,-0.83,-0.61,-0.21,0.15,-0.75,111.68
0,13176,-0.91,-0.04,-0.01,-0.41,0.55,0.03,-0.00,-0.83,-0.60,-0.24,0.17,-0.74,111.63
0,13181,-0.91,-0.04,-0.01,-0.41,0.55,0.03,-0.00,-0.83,-0.60,-0.25,0.18,-0.74,111.65
0,13186,-0.91,-0.04,-0.01,-0.41,0.55,0.03,-0.00,-0.83,-0.59,-0.26,0.19,-0.74,111.67
0,13191,-0.91,-0.04,-0.01,-0.41,0.55,0.03,-0.00,-0.83,-0.59,-0.27,0.20,-0.73,111.67
0,13206,-0.91,-0.04,-0.01,-0.41,0.55,0.03,-0.00,-0.83,-0.58,-0.30,0.23,-0.72,111.69
0,13211,-0.91,-0.04,-0.01,-0.41,0.55,0.03,-0.00,-0.83,-0.58,-0.31,0.24,-0.71,111.69
0,13216,-0.91,-0.04,-0.01,-0.41,0.55,0.03,-0.00,-0.83,-0.57,-0.31,0.25,-0.71,111.72
0,13226,-0.91,-0.04,-0.01,-0.41,0.55,0.03,-0.00,-0.83,-0.57,-0.32,0.27,-0.70,111.75
0,13236,-0.91,-0.04,-0.01,-0.41,0.55,0.03,-0.00,-0.83,-0.56,-0.33,0.29,-0.70,111.72
0,13241,-0.91,-0.04,-0.01,-0.41,0.55,0.03,-0.00,-0.83,-0.56,-0.33,0.29,-0.69,111.75
0,13246,-0.91,-0.04,-0.01,-0.41,0.55,0.03,-0.00,-0.83,-0.56,-0.34,0.30,-0.69,111.75
0,13256,-0.91,-0.04,-0.01,-0.41,0.55,0.03,-0.00,-0.83,-0.56,-0.34,0.31,-0.69,111.80
0,13261,-0.91,-0.04,-0.01,-0.41,0.55,0.03,-0.00,-0.83,-0.56,-0.34,0.31,-0.69,111.81
0,13266,-0.91,-0.04,-0.01,-0.41,0.55,0.03,-0.00,-0.83,-0.55,-0.35,0.32,-0.69,111.81
0,13271,-0.91,-0.04,-0.01,-0.41,0.55,0.03,-0.00,-0.83,-0.55,-0.35,0.32,-0.68,111.83
0,13281,-0.91,-0.04,-0.01,-0.41,0.55,0.03,-0.00,-0.83,-0.55,-0.35,0.33,-0.68,111.87
0,13296,-0.91,-0.04,-0.01,-0.41,0.55,0.03,-0.00,-0.83,-0.55,-0.35,0.33,-0.68,111.91
0,13301,-0.91,-0.04,-0.01,-0.41,0.55,0.03,-0.00,-0.83,-0.55,-0.35,0.33,-0.68,111.89
0,13306,-0.91,-0.04,-0.01,-0.41,0.55,0.03,-0.00,-0.83,-0.55,-0.35,0.33,-0.68,111.86
0,13316,-0.91,-0.04,-0.01,-0.41,0.55,0.03,-0.00,-0.83,-0.56,-0.34,0.32,-0.69,111.87
0,13321,-0.91,-0.04,-0.01,-0.41,0.55,0.03,-0.00,-0.83,-0.56,-0.34,0.31,-0.69,111.87
0,13326,-0.91,-0.04,-0.01,-0.41,0.55,0.03,-0.00,-0.83,-0.56,-0.34,0.31,-0.69,111.89
0,13331,-0.91,-0.04,-0.01,-0.41,0.55,0.03,-0.00,-0.83,-0.56,-0.33,0.30,-0.69,111.91
0,13351,-0.91,-0.04,-0.01,-0.41,0.55,0.03,-0.00,-0.83,-0.57,-0.31,0.27,-0.71,112.09
0,13361,-0.91,-0.04,-0.01,-0.41,0.55,0.03,-0.00,-0.83,-0.57,-0.30,0.25,-0.72,112.66
0,13366,-0.91,-0.04,-0.01,-0.41,0.55,0.03,-0.00,-0.83,-0.57,-0.30,0.24,-0.72,113.07
0,13371,-0.91,-0.04,-0.01,-0.41,0.55,0.03,-0.00,-0.83,-0.57,-0.29,0.23,-0.73,113.49
0,13376,-0.91,-0.04,-0.01,-0.41,0.55,0.03,-0.00,-0.83,-0.58,-0.28,0.21,-0.73,114.07
0,13381,-0.91,-0.04,-0.01,-0.41,0.55,0.03,-0.00,-0.83,-0.59,-0.26,0.19,-0.74,114.62
0,13386,-0.91,-0.04,-0.01,-0.41,0.55,0.03,-0.00,-0.83,-0.59,-0.25,0.17,-0.75,115.21
0,13391,-0.91,-0.04,-0.01,-0.41,0.55,0.03,-0.00,-0.83,-0.60,-0.23,0.16,-0.75,115.94
0,13396,-0.91,-0.04,-0.01,-0.41,0.55,0.03,-0.00,-0.83,-0.60,-0.22,0.15,-0.75,116.87
0,13406,-0.91,-0.04,-0.01,-0.41,0.55,0.03,-0.00,-0.83,-0.60,-0.20,0.13,-0.76,118.97
0,13411,-0.91,-0.04,-0.01,-0.41,0.55,0.03,-0.00,-0.83,-0.61,-0.18,0.12,-0.76,119.94
0,13416,-0.91,-0.04,-0.01,-0.41,0.55,0.03,-0.00,-0.83,-0.61,-0.17,0.11,-0.77,120.79
0,13421,-0.91,-0.04,-0.01,-0.41,0.55,0.03,-0.00,-0.83,-0.61,-0.16,0.10,-0.77,121.56
0,13426,-0.91,-0.04,-0.01,-0.41,0.55,0.03,-0.00,-0.83,-0.61,-0.14,0.10,-0.77,122.25
0,13436,-0.91,-0.04,-0.01,-0.41,0.55,0.03,-0.00,-0.83,-0.61,-0.12,0.08,-0.78,123.32
0,13441,-0.91,-0.04,-0.01,-0.41,0.55,0.03,-0.00,-0.83,-0.61,-0.11,0.08,-0.78,123.55
0,13446,-0.91,-0.04,-0.01,-0.41,0.55,0.03,-0.00,-0.83,-0.61,-0.10,0.08,-0.78,123.73
0,13451,-0.91,-0.04,-0.01,-0.41,0.55,0.03,-0.00,-0.83,-0.61,-0.09,0.07,-0.78,123.79
0,13461,-0.91,-0.04,-0.01,-0.41,0.55,0.03,-0.00,-0.83,-0.61,-0.08,0.07,-0.78,123.77
0,13466,-0.91,-0.04,-0.01,-0.41,0.55,0.03,-0.00,-0.83,-0.61,-0.08,0.06,-0.79,123.71
0,13471,-0.91,-0.04,-0.01,-0.41,0.55,0.03,-0.00,-0.83,-0.61,-0.07,0.06,-0.79,123.61
0,13481,-0.91,-0.04,-0.01,-0.41,0.55,0.03,-0.00,-0.83,-0.61,-0.06,0.06,-0.79,123.39
0,13496,-0.91,-0.04,-0.01,-0.41,0.55,0.03,-0.00,-0.83,-0.61,-0.05,0.06,-0.79,123.00
0,13501,-0.91,-0.04,-0.01,-0.41,0.55,0.03,-0.00,-0.83,-0.61,-0.05,0.06,-0.79,122.82
0,13506,-0.91,-0.04,-0.01,-0.41,0.55,0.03,-0.00,-0.83,-0.61,-0.05,0.06,-0.79,122.62
0,13511,-0.91,-0.04,-0.01,-0.41,0.55,0.03,-0.00,-0.83,-0.61,-0.05,0.06,-0.79,122.37
0,13521,-0.91,-0.04,-0.01,-0.41,0.55,0.03,-0.00,-0.83,-0.61,-0.05,0.06,-0.79,121.70
0,13526,-0.91,-0.04,-0.01,-0.41,0.55,0.03,-0.00,-0.83,-0.61,-0.05,0.07,-0.79,121.29
0,13531,-0.91,-0.04,-0.01,-0.41,0.55,0.03,-0.00,-0.83,-0.61,-0.05,0.07,-0.79,120.83
0,13551,-0.91,-0.04,-0.01,-0.41,0.55,0.03,-0.00,-0.83,-0.61,-0.05,0.07,-0.79,118.96
0,13556,-0.91,-0.04,-0.01,-0.41,0.55,0.03,-0.00,-0.83,-0.61,-0.06,0.07,-0.79,118.44
0,13561,-0.91,-0.04,-0.01,-0.41,0.55,0.03,-0.00,-0.83,-0.61,-0.06,0.07,-0.79,117.91
0,13566,-0.91,-0.04,-0.01,-0.41,0.55,0.03,-0.00,-0.83,-0.61,-0.06,0.07,-0.79,117.22
0,13571,-0.91,-0.04,-0.01,-0.41,0.55,0.03,-0.00,-0.83,-0.61,-0.06,0.07,-0.79,116.57
0,13581,-0.91,-0.04,-0.01,-0.41,0.55,0.03,-0.00,-0.83,-0.61,-0.07,0.08,-0.79,115.05
0,13586,-0.91,-0.04,-0.01,-0.41,0.55,0.03,-0.00,-0.83,-0.61,-0.07,0.08,-0.79,114.32
0,13591,-0.91,-0.04,-0.01,-0.41,0.55,0.03,-0.00,-0.83,-0.61,-0.08,0.08,-0.79,113.71
0,13601,-0.91,-0.04,-0.01,-0.41,0.55,0.03,-0.00,-0.83,-0.61,-0.08,0.09,-0.79,112.90
0,13621,-0.91,-0.04,-0.01,-0.41,0.55,0.03,-0.00,-0.83,-0.61,-0.10,0.09,-0.78,111.56
0,13626,-0.91,-0.04,-0.01,-0.41,0.55,0.03,-0.00,-0.83,-0.61,-0.11,0.10,-0.78,111.36
0,13631,-0.91,-0.04,-0.01,-0.41,0.55,0.03,-0.00,-0.83,-0.61,-0.12,0.10,-0.78,111.07
0,13636,-0.91,-0.04,-0.01,-0.41,0.55,0.03,-0.00,-0.83,-0.61,-0.13,0.10,-0.78,111.16
0,13641,-0.91,-0.04,-0.01,-0.41,0.55,0.03,-0.00,-0.83,-0.61,-0.14,0.10,-0.77,111.16
0,13646,-0.91,-0.04,-0.01,-0.41,0.55,0.03,-0.00,-0.83,-0.61,-0.14,0.11,-0.77,111.18
0,13651,-0.91,-0.04,-0.01,-0.41,0.55,0.03,-0.00,-0.83,-0.61,-0.15,0.12,-0.77,111.18
0,13666,-0.91,-0.04,-0.01,-0.41,0.55,0.03,-0.00,-0.83,-0.61,-0.19,0.14,-0.76,111.12
0,13671,-0.91,-0.04,-0.01,-0.41,0.55,0.03,-0.00,-0.83,-0.61,-0.20,0.15,-0.75,111.14
0,13676,-0.91,-0.04,-0.01,-0.41,0.55,0.03,-0.00,-0.83,-0.60,-0.21,0.16,-0.75,111.16
0,13681,-0.91,-0.04,-0.01,-0.41,0.55,0.03,-0.00,-0.83,-0.60,-0.23,0.17,-0.75,111.12
0,13701,-0.91,-0.04,-0.01,-0.41,0.55,0.03,-0.00,-0.83,-0.59,-0.28,0.22,-0.72,111.16
0,13706,-0.91,-0.04,-0.01,-0.41,0.55,0.03,-0.00,-0.83,-0.58,-0.29,0.24,-0.72,111.18
0,13711,-0.91,-0.04,-0.01,-0.41,0.55,0.03,-0.00,-0.83,-0.58,-0.31,0.25,-0.71,111.20
0,13716,-0.91,-0.04,-0.01,-0.41,0.55,0.03,-0.00,-0.83,-0.57,-0.32,0.26,-0.70,111.23
0,13731,-0.91,-0.04,-0.01,-0.41,0.55,0.03,-0.00,-0.83,-0.56,-0.35,0.30,-0.69,111.26
0,13736,-0.91,-0.04,-0.01,-0.41,0.55,0.03,-0.00,-0.83,-0.56,-0.36,0.31,-0.68,111.28
0,13741,-0.91,-0.04,-0.01,-0.41,0.55,0.03,-0.00,-0.83,-0.55,-0.37,0.32,-0.68,111.30
0,13746,-0.91,-0.04,-0.01,-0.41,0.55,0.03,-0.00,-0.83,-0.55,-0.37,0.33,-0.67,111.28
0,13761,-0.91,-0.04,-0.01,-0.41,0.55,0.03,-0.00,-0.83,-0.54,-0.38,0.35,-0.66,111.28
0,13766,-0.91,-0.04,-0.01,-0.41,0.55,0.03,-0.00,-0.83,-0.54,-0.39,0.35,-0.66,111.26
0,13771,-0.91,-0.04,-0.01,-0.41,0.55,0.03,-0.00,-0.83,-0.54,-0.39,0.36,-0.65,111.29
0,13776,-0.91,-0.04,-0.01,-0.41,0.55,0.03,-0.00,-0.83,-0.54,-0.39,0.36,-0.65,111.30
0,13781,-0.91,-0.04,-0.01,-0.41,0.55,0.03,-0.00,-0.83,-0.54,-0.39,0.37,-0.65,111.34
0,13786,-0.91,-0.04,-0.01,-0.41,0.55,0.03,-0.00,-0.83,-0.54,-0.39,0.37,-0.65,111.38
0,13791,-0.91,-0.04,-0.01,-0.41,0.55,0.03,-0.00,-0.83,-0.54,-0.39,0.37,-0.65,111.40
0,13801,-0.91,-0.04,-0.01,-0.41,0.55,0.03,-0.00,-0.83,-0.54,-0.39,0.37,-0.64,111.44
0,13816,-0.91,-0.04,-0.01,-0.41,0.55,0.03,-0.00,-0.83,-0.54,-0.39,0.37,-0.65,111.48
0,13826,-0.91,-0.04,-0.01,-0.41,0.55,0.03,-0.00,-0.83,-0.54,-0.39,0.36,-0.65,111.56
0,13831,-0.91,-0.04,-0.01,-0.41,0.55,0.03,-0.00,-0.83,-0.54,-0.38,0.35,-0.66,111.60
0,13836,-0.91,-0.04,-0.01,-0.41,0.55,0.03,-0.00,-0.83,-0.54,-0.38,0.35,-0.66,111.58
0,13841,-0.91,-0.04,-0.01,-0.41,0.55,0.03,-0.00,-0.83,-0.55,-0.38,0.34,-0.66,111.62
0,13846,-0.91,-0.04,-0.01,-0.41,0.55,0.03,-0.00,-0.83,-0.55,-0.37,0.33,-0.67,111.64
0,13851,-0.91,-0.04,-0.01,-0.41,0.55,0.03,-0.00,-0.83,-0.55,-0.37,0.33,-0.67,111.66
0,13856,-0.91,-0.04,-0.01,-0.41,0.55,0.03,-0.00,-0.83,-0.55,-0.37,0.32,-0.68,111.68
0,13871,-0.91,-0.04,-0.01,-0.41,0.55,0.03,-0.00,-0.83,-0.56,-0.34,0.28,-0.69,111.68
0,13881,-0.91,-0.04,-0.01,-0.41,0.55,0.03,-0.00,-0.83,-0.57,-0.32,0.25,-0.71,112.19
0,13886,-0.91,-0.04,-0.01,-0.41,0.55,0.03,-0.00,-0.83,-0.58,-0.31,0.23,-0.72,112.58
0,13891,-0.91,-0.04,-0.01,-0.41,0.55,0.03,-0.00,-0.83,-0.58,-0.29,0.22,-0.73,113.18
0,13906,-0.91,-0.04,-0.01,-0.41,0.55,0.03,-0.00,-0.83,-0.59,-0.26,0.17,-0.74,115.86
0,13911,-0.91,-0.04,-0.01,-0.41,0.55,0.03,-0.00,-0.83,-0.60,-0.24,0.16,-0.75,116.73
0,13916,-0.91,-0.04,-0.01,-0.41,0.55,0.03,-0.00,-0.83,-0.60,-0.23,0.15,-0.75,117.56
0,13921,-0.91,-0.04,-0.01,-0.41,0.55,0.03,-0.00,-0.83,-0.60,-0.22,0.14,-0.75,118.33
0,13926,-0.91,-0.04,-0.01,-0.41,0.55,0.03,-0.00,-0.83,-0.61,-0.21,0.13,-0.75,119.04
0,13936,-0.91,-0.04,-0.01,-0.41,0.55,0.03,-0.00,-0.83,-0.61,-0.19,0.11,-0.76,119.99
0,13941,-0.91,-0.04,-0.01,-0.41,0.55,0.03,-0.00,-0.83,-0.61,-0.17,0.10,-0.76,120.42
0,13946,-0.91,-0.04,-0.01,-0.41,0.55,0.03,-0.00,-0.83,-0.62,-0.17,0.10,-0.76,120.83
0,13971,-0.91,-0.04,-0.01,-0.41,0.55,0.03,-0.00,-0.83,-0.62,-0.13,0.07,-0.77,122.71
0,13976,-0.91,-0.04,-0.01,-0.41,0.55,0.03,-0.00,-0.83,-0.62,-0.12,0.07,-0.77,122.96
0,13981,-0.91,-0.04,-0.01,-0.41,0.55,0.03,-0.00,-0.83,-0.62,-0.12,0.07,-0.77,123.18
0,13986,-0.91,-0.04,-0.01,-0.41,0.55,0.03,-0.00,-0.83,-0.62,-0.11,0.06,-0.77,123.41
0,14001,-0.91,-0.04,-0.01,-0.41,0.55,0.03,-0.00,-0.83,-0.62,-0.10,0.06,-0.77,124.01
0,14006,-0.91,-0.04,-0.01,-0.41,0.55,0.03,-0.00,-0.83,-0.62,-0.10,0.06,-0.77,124.15
0,14011,-0.91,-0.04,-0.01,-0.41,0.55,0.03,-0.00,-0.83,-0.62,-0.10,0.06,-0.78,124.25
0,14016,-0.91,-0.04,-0.01,-0.41,0.55,0.03,-0.00,-0.83,-0.62,-0.09,0.06,-0.78,124.23
0,14036,-0.91,-0.04,-0.01,-0.41,0.55,0.03,-0.00,-0.83,-0.62,-0.09,0.05,-0.78,123.79
0,14041,-0.91,-0.04,-0.01,-0.41,0.55,0.03,-0.00,-0.83,-0.62,-0.08,0.05,-0.78,123.60
0,14046,-0.91,-0.04,-0.01,-0.41,0.55,0.03,-0.00,-0.83,-0.62,-0.08,0.05,-0.78,123.34
0,14051,-0.91,-0.04,-0.01,-0.41,0.55,0.03,-0.00,-0.83,-0.62,-0.08,0.05,-0.78,123.06
0,14056,-0.91,-0.04,-0.01,-0.41,0.55,0.03,-0.00,-0.83,-0.62,-0.08,0.05,-0.78,122.75
0,14061,-0.91,-0.04,-0.01,-0.41,0.55,0.03,-0.00,-0.83,-0.62,-0.08,0.05,-0.77,122.37
0,14066,-0.91,-0.04,-0.01,-0.41,0.55,0.03,-0.00,-0.83,-0.62,-0.08,0.05,-0.77,121.95
0,14081,-0.91,-0.04,-0.01,-0.41,0.55,0.03,-0.00,-0.83,-0.62,-0.08,0.05,-0.77,120.36
0,14096,-0.91,-0.04,-0.01,-0.41,0.55,0.03,-0.00,-0.83,-0.62,-0.08,0.06,-0.77,118.23
0,14101,-0.91,-0.04,-0.01,-0.41,0.55,0.03,-0.00,-0.83,-0.62,-0.09,0.06,-0.77,117.46
0,14106,-0.91,-0.04,-0.01,-0.41,0.55,0.03,-0.00,-0.83,-0.62,-0.09,0.06,-0.77,116.71
0,14111,-0.91,-0.04,-0.01,-0.41,0.55,0.03,-0.00,-0.83,-0.62,-0.09,0.06,-0.77,115.77
0,14121,-0.91,-0.04,-0.01,-0.41,0.55,0.03,-0.00,-0.83,-0.62,-0.10,0.06,-0.77,114.12
0,14126,-0.91,-0.04,-0.01,-0.41,0.55,0.03,-0.00,-0.83,-0.62,-0.10,0.06,-0.77,113.38
0,14131,-0.91,-0.04,-0.01,-0.41,0.55,0.03,-0.00,-0.83,-0.62,-0.10,0.07,-0.77,112.69
0,14141,-0.91,-0.04,-0.01,-0.41,0.55,0.03,-0.00,-0.83,-0.62,-0.12,0.07,-0.77,111.91
0,14146,-0.91,-0.04,-0.01,-0.41,0.55,0.03,-0.00,-0.83,-0.62,-0.12,0.08,-0.77,111.66
0,14151,-0.91,-0.04,-0.01,-0.41,0.55,0.03,-0.00,-0.83,-0.62,-0.13,0.08,-0.77,111.36
0,14156,-0.91,-0.04,-0.01,-0.41,0.55,0.03,-0.00,-0.83,-0.62,-0.14,0.09,-0.77,111.29
0,14166,-0.91,-0.04,-0.01,-0.41,0.55,0.03,-0.00,-0.83,-0.62,-0.16,0.10,-0.76,111.11
0,14176,-0.91,-0.04,-0.01,-0.41,0.55,0.03,-0.00,-0.83,-0.62,-0.17,0.11,-0.76,111.13
0,14181,-0.91,-0.04,-0.01,-0.41,0.55,0.03,-0.00,-0.83,-0.62,-0.19,0.12,-0.76,111.15
0,14186,-0.91,-0.04,-0.01,-0.41,0.55,0.03,-0.00,-0.83,-0.61,-0.20,0.13,-0.75,111.15
0,14191,-0.91,-0.04,-0.01,-0.41,0.55,0.03,-0.00,-0.83,-0.61,-0.21,0.14,-0.75,111.12
0,14201,-0.91,-0.04,-0.01,-0.41,0.55,0.03,-0.00,-0.83,-0.61,-0.24,0.16,-0.74,111.15
0,14206,-0.91,-0.04,-0.01,-0.41,0.55,0.03,-0.00,-0.83,-0.60,-0.25,0.17,-0.74,111.15
0,14211,-0.91,-0.04,-0.01,-0.41,0.55,0.03,-0.00,-0.83,-0.60,-0.27,0.19,-0.73,111.15
0,14216,-0.91,-0.04,-0.01,-0.41,0.55,0.03,-0.00,-0.83,-0.60,-0.28,0.20,-0.73,111.17
0,14221,-0.91,-0.04,-0.01,-0.41,0.55,0.03,-0.00,-0.83,-0.59,-0.29,0.21,-0.72,111.15
0,14236,-0.91,-0.04,-0.01,-0.41,0.55,0.03,-0.00,-0.83,-0.58,-0.33,0.25,-0.70,111.19
0,14241,-0.91,-0.04,-0.01,-0.41,0.55,0.03,-0.00,-0.83,-0.58,-0.34,0.26,-0.70,111.19
0,14246,-0.91,-0.04,-0.01,-0.41,0.55,0.03,-0.00,-0.83,-0.57,-0.35,0.27,-0.69,111.18
0,14251,-0.91,-0.04,-0.01,-0.41,0.55,0.03,-0.00,-0.83,-0.57,-0.36,0.28,-0.69,111.16
0,14261,-0.91,-0.04,-0.01,-0.41,0.55,0.03,-0.00,-0.83,-0.56,-0.37,0.29,-0.68,111.15
0,14266,-0.91,-0.04,-0.01,-0.41,0.55,0.03,-0.00,-0.83,-0.56,-0.37,0.29,-0.68,111.17
0,14271,-0.91,-0.04,-0.01,-0.41,0.55,0.03,-0.00,-0.83,-0.56,-0.38,0.30,-0.67,111.17
0,14291,-0.91,-0.04,-0.01,-0.41,0.55,0.03,-0.00,-0.83,-0.55,-0.39,0.32,-0.66,111.27
0,14296,-0.91,-0.04,-0.01,-0.41,0.55,0.03,-0.00,-0.83,-0.55,-0.39,0.32,-0.66,111.29
0,14301,-0.91,-0.04,-0.01,-0.41,0.55,0.03,-0.00,-0.83,-0.55,-0.39,0.32,-0.66,111.27
0,14306,-0.91,-0.04,-0.01,-0.41,0.55,0.03,-0.00,-0.83,-0.55,-0.40,0.33,-0.66,111.27
0,14316,-0.91,-0.04,-0.01,-0.41,0.55,0.03,-0.00,-0.83,-0.55,-0.39,0.32,-0.66,111.30
0,14321,-0.91,-0.04,-0.01,-0.41,0.55,0.03,-0.00,-0.83,-0.55,-0.39,0.32,-0.66,111.31
0,14326,-0.91,-0.04,-0.01,-0.41,0.55,0.03,-0.00,-0.83,-0.55,-0.39,0.32,-0.66,111.35
0,14331,-0.91,-0.04,-0.01,-0.41,0.55,0.03,-0.00,-0.83,-0.55,-0.39,0.32,-0.67,111.37
0,14346,-0.91,-0.04,-0.01,-0.41,0.55,0.03,-0.00,-0.83,-0.56,-0.38,0.30,-0.67,111.40
0,14351,-0.91,-0.04,-0.01,-0.41,0.55,0.03,-0.00,-0.83,-0.56,-0.37,0.29,-0.68,111.44
0,14356,-0.91,-0.04,-0.01,-0.41,0.55,0.03,-0.00,-0.83,-0.56,-0.37,0.29,-0.68,111.44
0,14361,-0.91,-0.04,-0.01,-0.41,0.55,0.03,-0.00,-0.83,-0.57,-0.36,0.28,-0.69,111.46
0,14381,-0.91,-0.04,-0.01,-0.41,0.55,0.03,-0.00,-0.83,-0.58,-0.34,0.25,-0.70,111.52
0,14386,-0.91,-0.04,-0.01,-0.41,0.55,0.03,-0.00,-0.83,-0.58,-0.33,0.24,-0.71,111.66
0,14391,-0.91,-0.04,-0.01,-0.41,0.55,0.03,-0.00,-0.83,-0.58,-0.32,0.23,-0.71,111.92
0,14396,-0.91,-0.04,-0.01,-0.41,0.55,0.03,-0.00,-0.83,-0.59,-0.31,0.22,-0.71,112.19
0,14416,-0.91,-0.04,-0.01,-0.41,0.55,0.03,-0.00,-0.83,-0.60,-0.28,0.18,-0.73,113.81
0,14421,-0.91,-0.04,-0.01,-0.41,0.55,0.03,-0.00,-0.83,-0.60,-0.26,0.17,-0.73,114.58
0,14426,-0.91,-0.04,-0.01,-0.41,0.55,0.03,-0.00,-0.83,-0.61,-0.25,0.16,-0.74,115.45
0,14431,-0.91,-0.04,-0.01,-0.41,0.55,0.03,-0.00,-0.83,-0.61,-0.24,0.15,-0.74,116.32
0,14441,-0.91,-0.04,-0.01,-0.41,0.55,0.03,-0.00,-0.83,-0.61,-0.22,0.13,-0.75,117.94
0,14446,-0.91,-0.04,-0.01,-0.41,0.55,0.03,-0.00,-0.83,-0.62,-0.21,0.12,-0.75,118.69
0,14451,-0.91,-0.04,-0.01,-0.41,0.55,0.03,-0.00,-0.83,-0.62,-0.20,0.11,-0.75,119.40
0,14456,-0.91,-0.04,-0.01,-0.41,0.55,0.03,-0.00,-0.83,-0.62,-0.19,0.10,-0.76,120.07
0,14471,-0.91,-0.04,-0.01,-0.41,0.55,0.03,-0.00,-0.83,-0.62,-0.15,0.08,-0.76,121.75
0,14476,-0.91,-0.04,-0.01,-0.41,0.55,0.03,-0.00,-0.83,-0.62,-0.14,0.07,-0.76,122.24
0,14481,-0.91,-0.04,-0.01,-0.41,0.55,0.03,-0.00,-0.83,-0.62,-0.14,0.07,-0.77,122.73
0,14491,-0.91,-0.04,-0.01,-0.41,0.55,0.03,-0.00,-0.83,-0.62,-0.12,0.06,-0.77,123.44
0,14501,-0.91,-0.04,-0.01,-0.41,0.55,0.03,-0.00,-0.83,-0.62,-0.10,0.05,-0.77,123.94
0,14506,-0.91,-0.04,-0.01,-0.41,0.55,0.03,-0.00,-0.83,-0.62,-0.10,0.05,-0.78,124.09
0,14511,-0.91,-0.04,-0.01,-0.41,0.55,0.03,-0.00,-0.83,-0.62,-0.09,0.05,-0.78,124.15
0,14516,-0.91,-0.04,-0.01,-0.41,0.55,0.03,-0.00,-0.83,-0.62,-0.09,0.05,-0.78,124.23
0,14526,-0.91,-0.04,-0.01,-0.41,0.55,0.03,-0.00,-0.83,-0.62,-0.08,0.05,-0.78,124.09
0,14531,-0.91,-0.04,-0.01,-0.41,0.55,0.03,-0.00,-0.83,-0.62,-0.07,0.05,-0.78,123.94
0,14536,-0.91,-0.04,-0.01,-0.41,0.55,0.03,-0.00,-0.83,-0.62,-0.07,0.04,-0.78,123.70
0,14541,-0.91,-0.04,-0.01,-0.41,0.55,0.03,-0.00,-0.83,-0.62,-0.06,0.04,-0.78,123.38
0,14561,-0.91,-0.04,-0.01,-0.41,0.55,0.03,-0.00,-0.83,-0.62,-0.06,0.04,-0.78,121.57
0,14566,-0.91,-0.04,-0.01,-0.41,0.55,0.03,-0.00,-0.83,-0.62,-0.06,0.04,-0.78,120.92
0,14571,-0.91,-0.04,-0.01,-0.41,0.55,0.03,-0.00,-0.83,-0.62,-0.06,0.04,-0.78,120.17
0,14576,-0.91,-0.04,-0.01,-0.41,0.55,0.03,-0.00,-0.83,-0.62,-0.06,0.05,-0.78,119.36
0,14591,-0.91,-0.04,-0.01,-0.41,0.55,0.03,-0.00,-0.83,-0.62,-0.06,0.05,-0.78,116.74
0,14596,-0.91,-0.04,-0.01,-0.41,0.55,0.03,-0.00,-0.83,-0.62,-0.06,0.05,-0.78,115.75
0,14601,-0.91,-0.04,-0.01,-0.41,0.55,0.03,-0.00,-0.83,-0.62,-0.07,0.05,-0.78,114.80
0,14606,-0.91,-0.04,-0.01,-0.41,0.55,0.03,-0.00,-0.83,-0.62,-0.07,0.05,-0.78,113.88
0,14621,-0.91,-0.04,-0.01,-0.41,0.55,0.03,-0.00,-0.83,-0.62,-0.09,0.06,-0.78,111.40
0,14626,-0.91,-0.04,-0.01,-0.41,0.55,0.03,-0.00,-0.83,-0.62,-0.09,0.07,-0.78,111.07
0,14631,-0.91,-0.04,-0.01,-0.41,0.55,0.03,-0.00,-0.83,-0.62,-0.10,0.07,-0.77,110.72
0,14636,-0.91,-0.04,-0.01,-0.41,0.55,0.03,-0.00,-0.83,-0.62,-0.10,0.07,-0.77,110.54
0,14646,-0.91,-0.04,-0.01,-0.41,0.55,0.03,-0.00,-0.83,-0.62,-0.12,0.08,-0.77,109.87
0,14651,-0.91,-0.04,-0.01,-0.41,0.55,0.03,-0.00,-0.83,-0.62,-0.13,0.09,-0.77,109.78
0,14656,-0.91,-0.04,-0.01,-0.41,0.55,0.03,-0.00,-0.83,-0.62,-0.14,0.10,-0.76,109.75
0,14661,-0.91,-0.04,-0.01,-0.41,0.55,0.03,-0.00,-0.83,-0.62,-0.15,0.10,-0.76,109.70
0,14671,-0.91,-0.04,-0.01,-0.41,0.55,0.03,-0.00,-0.83,-0.62,-0.17,0.12,-0.75,109.50
0,14676,-0.91,-0.04,-0.01,-0.41,0.55,0.03,-0.00,-0.83,-0.62,-0.18,0.13,-0.75,109.37
0,14681,-0.91,-0.04,-0.01,-0.41,0.55,0.03,-0.00,-0.83,-0.62,-0.19,0.14,-0.75,109.24
0,14691,-0.91,-0.04,-0.01,-0.41,0.55,0.03,-0.00,-0.83,-0.62,-0.21,0.16,-0.74,108.96
0,14711,-0.91,-0.04,-0.01,-0.41,0.55,0.03,-0.00,-0.83,-0.61,-0.26,0.20,-0.72,108.29
0,14716,-0.91,-0.04,-0.01,-0.41,0.55,0.03,-0.00,-0.83,-0.61,-0.27,0.22,-0.71,108.09
0,14721,-0.91,-0.04,-0.01,-0.41,0.55,0.03,-0.00,-0.83,-0.60,-0.28,0.23,-0.71,107.85
0,14726,-0.91,-0.04,-0.01,-0.41,0.55,0.03,-0.00,-0.83,-0.60,-0.29,0.24,-0.70,107.60
0,14736,-0.91,-0.04,-0.01,-0.41,0.55,0.03,-0.00,-0.83,-0.60,-0.31,0.26,-0.69,106.95
0,14741,-0.91,-0.04,-0.01,-0.41,0.55,0.03,-0.00,-0.83,-0.60,-0.31,0.26,-0.69,106.61
0,14746,-0.91,-0.04,-0.01,-0.41,0.55,0.03,-0.00,-0.83,-0.59,-0.31,0.27,-0.69,106.26
0,14756,-0.91,-0.04,-0.01,-0.41,0.55,0.03,-0.00,-0.83,-0.59,-0.32,0.28,-0.68,105.53
0,14766,-0.91,-0.04,-0.01,-0.41,0.55,0.03,-0.00,-0.83,-0.59,-0.32,0.29,-0.68,104.76
0,14771,-0.91,-0.04,-0.01,-0.41,0.55,0.03,-0.00,-0.83,-0.59,-0.32,0.29,-0.68,104.32
0,14776,-0.91,-0.04,-0.01,-0.41,0.55,0.03,-0.00,-0.83,-0.59,-0.32,0.29,-0.68,103.85
0,14781,-0.91,-0.04,-0.01,-0.41,0.55,0.03,-0.00,-0.83,-0.59,-0.32,0.29,-0.68,103.42
0,14791,-0.91,-0.04,-0.01,-0.41,0.55,0.03,-0.00,-0.83,-0.59,-0.32,0.29,-0.68,102.53
0,14796,-0.91,-0.04,-0.01,-0.41,0.55,0.03,-0.00,-0.83,-0.59,-0.31,0.29,-0.68,102.10
0,14801,-0.91,-0.04,-0.01,-0.41,0.55,0.03,-0.00,-0.83,-0.59,-0.31,0.29,-0.68,101.70
0,14806,-0.91,-0.04,-0.01,-0.41,0.55,0.03,-0.00,-0.83,-0.59,-0.31,0.29,-0.68,101.35
0,14831,-0.91,-0.04,-0.01,-0.41,0.55,0.03,-0.00,-0.83,-0.60,-0.29,0.28,-0.69,100.46
0,14836,-0.91,-0.04,-0.01,-0.41,0.55,0.03,-0.00,-0.83,-0.61,-0.28,0.27,-0.69,100.38
0,14841,-0.91,-0.04,-0.01,-0.41,0.55,0.03,-0.00,-0.83,-0.61,-0.27,0.26,-0.70,100.42
0,14846,-0.91,-0.04,-0.01,-0.41,0.55,0.03,-0.00,-0.83,-0.61,-0.26,0.26,-0.70,100.42
0,14856,-0.91,-0.04,-0.01,-0.41,0.55,0.03,-0.00,-0.83,-0.62,-0.25,0.24,-0.71,100.46
0,14861,-0.91,-0.04,-0.01,-0.41,0.55,0.03,-0.00,-0.83,-0.62,-0.24,0.24,-0.71,100.48
0,14866,-0.91,-0.04,-0.01,-0.41,0.55,0.03,-0.00,-0.83,-0.62,-0.23,0.23,-0.72,100.44
0,14871,-0.91,-0.04,-0.01,-0.41,0.55,0.03,-0.00,-0.83,-0.62,-0.22,0.22,-0.72,100.46
0,14886,-0.91,-0.04,-0.01,-0.41,0.55,0.03,-0.00,-0.83,-0.62,-0.19,0.20,-0.73,100.46
0,14891,-0.91,-0.04,-0.01,-0.41,0.55,0.03,-0.00,-0.83,-0.62,-0.19,0.20,-0.74,100.48
0,14896,-0.91,-0.04,-0.01,-0.41,0.55,0.03,-0.00,-0.83,-0.62,-0.18,0.19,-0.74,100.50
0,14901,-0.91,-0.04,-0.01,-0.41,0.55,0.03,-0.00,-0.83,-0.62,-0.17,0.18,-0.75,100.46
0,14911,-0.91,-0.04,-0.01,-0.41,0.55,0.03,-0.00,-0.83,-0.62,-0.16,0.17,-0.75,100.48
0,14916,-0.91,-0.04,-0.01,-0.41,0.55,0.03,-0.00,-0.83,-0.62,-0.15,0.16,-0.75,100.52
0,14921,-0.91,-0.04,-0.01,-0.41,0.55,0.03,-0.00,-0.83,-0.62,-0.14,0.15,-0.76,100.50
0,14926,-0.91,-0.04,-0.01,-0.41,0.55,0.03,-0.00,-0.83,-0.62,-0.14,0.14,-0.76,100.52
0,14946,-0.91,-0.04,-0.01,-0.41,0.55,0.03,-0.00,-0.83,-0.62,-0.10,0.10,-0.77,100.52
0,14951,-0.91,-0.04,-0.01,-0.41,0.55,0.03,-0.00,-0.83,-0.62,-0.09,0.10,-0.78,100.50
0,14956,-0.91,-0.04,-0.01,-0.41,0.55,0.03,-0.00,-0.83,-0.62,-0.09,0.09,-0.78,100.50
0,14961,-0.91,-0.04,-0.01,-0.41,0.55,0.03,-0.00,-0.83,-0.62,-0.08,0.08,-0.78,100.50
0,14971,-0.91,-0.04,-0.01,-0.41,0.55,0.03,-0.00,-0.83,-0.61,-0.07,0.07,-0.78,100.52
0,14976,-0.91,-0.04,-0.01,-0.41,0.55,0.03,-0.00,-0.83,-0.61,-0.06,0.06,-0.78,100.52
0,14981,-0.91,-0.04,-0.01,-0.41,0.55,0.03,-0.00,-0.83,-0.61,-0.06,0.06,-0.79,100.50
0,14986,-0.91,-0.04,-0.01,-0.41,0.55,0.03,-0.00,-0.83,-0.61,-0.05,0.05,-0.79,100.52
0,15011,-0.91,-0.04,-0.01,-0.41,0.55,0.03,-0.00,-0.83,-0.61,-0.03,0.02,-0.79,100.54
0,15016,-0.91,-0.04,-0.01,-0.41,0.55,0.03,-0.00,-0.83,-0.61,-0.02,0.01,-0.79,100.54
0,15021,-0.91,-0.04,-0.01,-0.41,0.55,0.03,-0.00,-0.83,-0.61,-0.02,0.00,-0.79,100.54
0,15026,-0.91,-0.04,-0.01,-0.41,0.55,0.03,-0.00,-0.83,-0.61,-0.01,-0.01,-0.80,100.56
0,15036,-0.91,-0.04,-0.01,-0.41,0.55,0.03,-0.00,-0.83,-0.60,-0.00,-0.02,-0.80,100.52
0,15041,-0.91,-0.04,-0.01,-0.41,0.55,0.03,-0.00,-0.83,-0.60,0.00,-0.03,-0.80,100.54
0,15046,-0.91,-0.04,-0.01,-0.41,0.55,0.03,-0.00,-0.83,-0.60,0.00,-0.03,-0.80,100.54
0,15056,-0.91,-0.04,-0.01,-0.41,0.55,0.03,-0.00,-0.83,-0.60,0.00,-0.04,-0.80,100.52
0,15066,-0.91,-0.04,-0.01,-0.41,0.55,0.03,-0.00,-0.83,-0.60,0.00,-0.04,-0.80,100.56
0,15071,-0.91,-0.04,-0.01,-0.41,0.55,0.03,-0.00,-0.83,-0.60,0.00,-0.04,-0.80,100.54
0,15076,-0.91,-0.04,-0.01,-0.41,0.55,0.03,-0.00,-0.83,-0.60,0.00,-0.05,-0.80,100.54
0,15086,-0.91,-0.04,-0.01,-0.41,0.55,0.03,-0.00,-0.83,-0.60,0.00,-0.05,-0.80,100.58
0,15091,-0.91,-0.04,-0.01,-0.41,0.55,0.03,-0.00,-0.83,-0.60,0.01,-0.06,-0.80,100.54
0,15096,-0.91,-0.04,-0.01,-0.41,0.55,0.03,-0.00,-0.83,-0.60,0.01,-0.06,-0.80,100.54
0,15101,-0.91,-0.04,-0.01,-0.41,0.55,0.03,-0.00,-0.83,-0.60,0.01,-0.07,-0.80,100.54
0,15106,-0.91,-0.04,-0.01,-0.41,0.55,0.03,-0.00,-0.83,-0.60,0.01,-0.07,-0.80,100.54
0,15121,-0.91,-0.04,-0.01,-0.41,0.55,0.03,-0.00,-0.83,-0.60,0.03,-0.05,-0.80,100.54
0,15126,-0.91,-0.04,-0.01,-0.41,0.55,0.03,-0.00,-0.83,-0.59,0.03,-0.03,-0.80,100.56
0,15131,-0.91,-0.04,-0.01,-0.41,0.55,0.03,-0.00,-0.83,-0.59,0.01,-0.02,-0.81,100.56
0,15136,-0.91,-0.04,-0.01,-0.41,0.55,0.03,-0.00,-0.83,-0.59,0.00,-0.01,-0.81,100.54
0,15151,-0.91,-0.04,-0.01,-0.41,0.55,0.03,-0.00,-0.83,-0.59,-0.00,-0.00,-0.81,100.58
0,15156,-0.91,-0.04,-0.01,-0.41,0.55,0.03,-0.00,-0.83,-0.59,-0.00,-0.00,-0.81,100.56
0,15161,-0.91,-0.04,-0.01,-0.41,0.55,0.03,-0.00,-0.83,-0.58,-0.00,-0.00,-0.81,100.54
0,15171,-0.91,-0.04,-0.01,-0.41,0.55,0.03,-0.00,-0.83,-0.58,-0.00,-0.00,-0.81,100.56
0,15181,-0.91,-0.04,-0.01,-0.41,0.56,0.03,-0.00,-0.83,-0.58,-0.00,-0.00,-0.81,100.56
0,15186,-0.91,-0.04,-0.01,-0.41,0.56,0.03,-0.00,-0.83,-0.58,-0.00,-0.00,-0.81,100.54
0,15196,-0.91,-0.04,-0.01,-0.41,0.56,0.03,-0.00,-0.83,-0.58,-0.00,-0.00,-0.82,100.56
0,15206,-0.91,-0.04,-0.01,-0.41,0.56,0.03,-0.00,-0.83,-0.57,-0.00,-0.00,-0.82,100.56
0,15211,-0.91,-0.04,-0.01,-0.41,0.56,0.03,-0.00,-0.83,-0.57,-0.00,-0.00,-0.82,100.56
0,15216,-0.91,-0.04,-0.01,-0.41,0.56,0.03,-0.00,-0.83,-0.57,-0.00,-0.00,-0.82,100.54
0,15221,-0.91,-0.04,-0.01,-0.41,0.56,0.03,-0.00,-0.83,-0.57,-0.00,-0.00,-0.82,100.54
0,15226,-0.91,-0.04,-0.01,-0.41,0.56,0.03,-0.00,-0.83,-0.57,-0.00,-0.00,-0.82,100.56
0,15231,-0.91,-0.04,-0.01,-0.41,0.56,0.03,-0.00,-0.83,-0.56,-0.00,-0.00,-0.82,100.56
0,15236,-0.91,-0.04,-0.01,-0.41,0.56,0.03,-0.00,-0.83,-0.56,-0.00,-0.00,-0.82,100.56
0,15241,-0.91,-0.04,-0.01,-0.41,0.56,0.03,-0.00,-0.83,-0.56,-0.00,-0.00,-0.83,100.56
0,15261,-0.91,-0.04,-0.01,-0.41,0.56,0.03,-0.00,-0.83,-0.56,-0.00,-0.00,-0.83,100.54
0,15266,-0.91,-0.04,-0.01,-0.41,0.56,0.03,-0.00,-0.83,-0.56,-0.00,-0.00,-0.83,100.58
0,15271,-0.91,-0.04,-0.01,-0.41,0.56,0.03,-0.00,-0.83,-0.56,-0.00,-0.00,-0.83,100.54
0,15276,-0.91,-0.04,-0.01,-0.41,0.56,0.03,-0.00,-0.83,-0.56,-0.00,-0.00,-0.83,100.54
0,15281,-0.91,-0.04,-0.01,-0.41,0.56,0.03,-0.00,-0.83,-0.56,-0.00,-0.00,-0.83,100.54
0,15291,-0.91,-0.04,-0.01,-0.41,0.56,0.03,-0.00,-0.83,-0.56,-0.00,-0.00,-0.83,100.56
0,15296,-0.91,-0.04,-0.01,-0.41,0.56,0.03,-0.00,-0.83,-0.56,-0.00,-0.00,-0.83,100.56
0,15301,-0.91,-0.04,-0.01,-0.41,0.56,0.03,-0.00,-0.83,-0.56,-0.00,-0.00,-0.83,100.56
0,15306,-0.91,-0.04,-0.01,-0.41,0.56,0.03,-0.00,-0.83,-0.56,-0.00,-0.00,-0.83,100.58
0,15311,-0.91,-0.04,-0.01,-0.41,0.56,0.03,-0.00,-0.83,-0.56,-0.00,-0.00,-0.83,100.54
0,15326,-0.91,-0.04,-0.01,-0.41,0.56,0.03,-0.00,-0.83,-0.56,-0.00,-0.00,-0.83,100.56
0,15331,-0.91,-0.04,-0.01,-0.41,0.56,0.03,-0.00,-0.83,-0.56,-0.00,-0.00,-0.83,100.56
0,15336,-0.91,-0.04,-0.01,-0.41,0.56,0.03,-0.00,-0.83,-0.56,-0.00,-0.00,-0.83,100.56
0,15341,-0.91,-0.04,-0.01,-0.41,0.56,0.03,-0.00,-0.83,-0.56,-0.00,-0.00,-0.83,100.56
0,15346,-0.91,-0.04,-0.01,-0.41,0.56,0.03,-0.00,-0.83,-0.56,-0.00,-0.00,-0.83,100.56
0,15351,-0.91,-0.04,-0.01,-0.41,0.56,0.03,-0.00,-0.83,-0.56,-0.00,-0.00,-0.83,100.56
0,15356,-0.91,-0.04,-0.01,-0.41,0.56,0.03,-0.00,-0.83,-0.56,-0.00,-0.00,-0.83,100.56
0,15361,-0.91,-0.04,-0.01,-0.41,0.56,0.03,-0.00,-0.83,-0.56,-0.00,-0.00,-0.83,100.56
0,15366,-0.91,-0.04,-0.01,-0.41,0.56,0.03,-0.00,-0.83,-0.56,-0.00,-0.00,-0.83,100.56
0,15381,-0.91,-0.04,-0.01,-0.41,0.56,0.03,-0.00,-0.83,-0.56,-0.00,-0.00,-0.83,100.56
0,15386,-0.91,-0.04,-0.01,-0.41,0.56,0.03,-0.00,-0.83,-0.56,-0.00,-0.00,-0.83,100.56
0,15391,-0.91,-0.04,-0.01,-0.41,0.56,0.02,-0.00,-0.83,-0.56,-0.00,-0.00,-0.83,100.57
0,15396,-0.91,-0.04,-0.01,-0.41,0.56,0.02,-0.00,-0.83,-0.56,-0.00,-0.00,-0.83,100.56
0,15401,-0.91,-0.04,-0.01,-0.41,0.56,0.02,-0.00,-0.83,-0.56,-0.00,-0.00,-0.83,100.56
0,15411,-0.91,-0.04,-0.01,-0.41,0.56,0.02,-0.00,-0.83,-0.56,-0.00,-0.00,-0.83,100.54
0,15416,-0.91,-0.04,-0.01,-0.41,0.56,0.02,-0.00,-0.83,-0.56,-0.00,-0.00,-0.83,100.58
0,15421,-0.91,-0.04,-0.01,-0.41,0.56,0.02,-0.00,-0.83,-0.56,-0.00,-0.00,-0.83,100.56
0,15436,-0.91,-0.04,-0.01,-0.41,0.56,0.02,-0.00,-0.83,-0.56,-0.00,-0.00,-0.83,100.56
0,15441,-0.91,-0.04,-0.01,-0.41,0.56,0.02,-0.00,-0.83,-0.56,-0.00,-0.00,-0.83,100.56
0,15446,-0.91,-0.04,-0.01,-0.41,0.56,0.02,-0.00,-0.83,-0.56,-0.00,-0.00,-0.83,100.56
0,15451,-0.91,-0.04,-0.01,-0.41,0.56,0.02,-0.00,-0.83,-0.56,-0.00,-0.00,-0.83,100.56
0,15466,-0.91,-0.04,-0.01,-0.41,0.56,0.02,-0.00,-0.83,-0.56,-0.00,-0.00,-0.83,100.56
0,15471,-0.91,-0.04,-0.01,-0.41,0.56,0.02,-0.00,-0.83,-0.56,-0.00,-0.00,-0.83,100.56
0,15476,-0.91,-0.04,-0.01,-0.41,0.56,0.02,-0.00,-0.83,-0.56,-0.00,-0.00,-0.83,100.56
0,15481,-0.91,-0.04,-0.01,-0.41,0.56,0.02,-0.00,-0.83,-0.56,-0.00,-0.00,-0.83,100.58
0,15486,-0.91,-0.04,-0.01,-0.41,0.56,0.02,-0.00,-0.83,-0.56,-0.00,-0.00,-0.83,100.60
0,15506,-0.91,-0.04,-0.01,-0.41,0.56,0.02,-0.00,-0.83,-0.56,-0.00,-0.00,-0.83,100.60
0,15511,-0.91,-0.04,-0.01,-0.41,0.56,0.02,-0.00,-0.83,-0.56,-0.00,-0.00,-0.83,100.58
0,15516,-0.91,-0.04,-0.01,-0.41,0.56,0.02,-0.00,-0.83,-0.56,-0.00,-0.00,-0.83,100.56
0,15531,-0.91,-0.04,-0.01,-0.41,0.56,0.02,-0.00,-0.83,-0.56,-0.00,-0.00,-0.83,100.56
0,15536,-0.91,-0.04,-0.01,-0.41,0.56,0.02,-0.00,-0.83,-0.56,-0.00,-0.00,-0.83,100.56
0,15541,-0.91,-0.04,-0.01,-0.41,0.56,0.02,-0.00,-0.83,-0.56,-0.00,-0.00,-0.83,100.56
0,15546,-0.91,-0.04,-0.01,-0.41,0.56,0.02,-0.00,-0.83,-0.56,-0.00,-0.00,-0.83,100.56
0,15556,-0.91,-0.04,-0.01,-0.41,0.56,0.02,-0.00,-0.83,-0.56,-0.00,-0.00,-0.83,100.56
0,15566,-0.91,-0.04,-0.01,-0.41,0.56,0.02,-0.01,-0.83,-0.56,-0.00,-0.00,-0.83,100.58
0,15571,-0.91,-0.04,-0.01,-0.41,0.56,0.02,-0.01,-0.83,-0.56,-0.00,-0.00,-0.83,100.58
0,15591,-0.91,-0.04,-0.01,-0.41,0.56,0.02,-0.01,-0.83,-0.56,-0.00,-0.00,-0.83,100.58
0,15596,-0.91,-0.04,-0.01,-0.41,0.56,0.02,-0.01,-0.83,-0.56,-0.00,-0.00,-0.83,100.58
0,15601,-0.91,-0.04,-0.01,-0.41,0.56,0.02,-0.01,-0.83,-0.56,-0.00,-0.00,-0.83,100.56
0,15606,-0.91,-0.04,-0.01,-0.41,0.56,0.02,-0.01,-0.83,-0.56,-0.00,-0.00,-0.83,100.59
0,15616,-0.91,-0.04,-0.01,-0.41,0.56,0.02,-0.01,-0.83,-0.56,-0.00,-0.00,-0.83,100.56
0,15621,-0.91,-0.04,-0.01,-0.41,0.56,0.02,-0.01,-0.83,-0.56,-0.00,-0.00,-0.83,100.58
0,15631,-0.91,-0.04,-0.01,-0.41,0.56,0.02,-0.01,-0.83,-0.56,-0.00,-0.00,-0.83,100.56
0,15651,-0.91,-0.04,-0.01,-0.41,0.56,0.02,-0.01,-0.83,-0.56,-0.00,-0.00,-0.83,100.58
0,15656,-0.91,-0.04,-0.01,-0.41,0.56,0.02,-0.01,-0.83,-0.56,-0.00,-0.00,-0.83,100.56
0,15661,-0.91,-0.04,-0.01,-0.41,0.56,0.02,-0.01,-0.83,-0.56,-0.00,-0.00,-0.83,100.56
0,15676,-0.91,-0.04,-0.01,-0.41,0.56,0.02,-0.01,-0.83,-0.56,-0.00,-0.00,-0.83,100.58
0,15681,-0.91,-0.04,-0.01,-0.41,0.56,0.02,-0.01,-0.83,-0.56,-0.00,-0.00,-0.83,100.56
0,15686,-0.91,-0.04,-0.01,-0.41,0.56,0.01,-0.01,-0.83,-0.56,-0.00,-0.00,-0.83,100.58
0,15691,-0.91,-0.04,-0.01,-0.41,0.56,0.01,-0.01,-0.83,-0.56,-0.00,-0.00,-0.83,100.56
0,15706,-0.91,-0.04,-0.01,-0.41,0.56,0.01,-0.01,-0.83,-0.56,-0.00,-0.00,-0.83,100.58
0,15711,-0.91,-0.04,-0.01,-0.41,0.56,0.01,-0.01,-0.83,-0.56,-0.00,-0.00,-0.83,100.58
0,15716,-0.91,-0.04,-0.01,-0.41,0.56,0.01,-0.01,-0.83,-0.56,-0.00,-0.00,-0.83,100.56
0,15721,-0.91,-0.04,-0.01,-0.41,0.56,0.01,-0.01,-0.83,-0.56,-0.00,-0.00,-0.83,100.56
